Data from sun_USB4F104151__0__13-22-15-928.txt Node

Date: Fri Mar 08 13:22:15 EST 2024
User: lauri
Spectrometer: USB4F10415
Trigger mode: 4
Integration Time (sec): 5,000000E-4
Scans to average: 1
Electric dark correction enabled: true
Nonlinearity correction enabled: false
Boxcar width: 0
XAxis mode: Wavelengths
Number of Pixels in Spectrum: 3648
>>>>>Begin Spectral Data<<<<<
178,204	-21,16
178,424	-21,16
178,644	-21,16
178,864	17,75
179,084	17,75
179,304	9,56
179,524	30,04
179,744	32,08
179,964	-31,4
180,184	-76,46
180,404	23,89
180,624	27,99
180,844	1,37
181,064	-0,68
181,283	34,13
181,503	-25,26
181,723	-25,26
181,943	23,89
182,163	15,7
182,383	30,04
182,602	27,99
182,822	25,94
183,042	9,56
183,262	9,56
183,482	30,04
183,701	-17,07
183,921	17,75
184,141	-80,55
184,361	-6,83
184,58	-8,87
184,8	-74,41
185,02	-27,31
185,239	11,61
185,459	40,28
185,679	7,51
185,898	17,75
186,118	11,61
186,338	15,7
186,557	50,52
186,777	-90,79
186,997	27,99
187,216	-47,79
187,436	17,75
187,655	83,28
187,875	-10,92
188,095	-43,69
188,314	66,9
188,534	17,75
188,753	-58,03
188,973	48,47
189,192	-39,59
189,412	-51,88
189,631	7,51
189,851	-10,92
190,07	73,04
190,29	-98,99
190,509	7,51
190,729	17,75
190,948	-27,31
191,168	50,52
191,387	-39,59
191,607	54,61
191,826	42,32
192,045	-47,79
192,265	-47,79
192,484	23,89
192,704	-17,07
192,923	-6,83
193,142	46,42
193,362	-27,31
193,581	42,32
193,8	7,51
194,02	34,13
194,239	17,75
194,458	-47,79
194,678	-55,98
194,897	-80,55
195,116	-62,12
195,335	17,75
195,555	32,08
195,774	34,13
195,993	-33,45
196,212	85,33
196,432	-35,5
196,651	5,46
196,87	-55,98
197,089	-6,83
197,308	15,7
197,528	-39,59
197,747	-35,5
197,966	-0,68
198,185	-0,68
198,404	58,71
198,623	-60,07
198,842	-0,68
199,062	-17,07
199,281	50,52
199,5	-4,78
199,719	-12,97
199,938	-10,92
200,157	-27,31
200,376	58,71
200,595	34,13
200,814	66,9
201,033	34,13
201,252	-8,87
201,471	-15,02
201,69	38,23
201,909	34,13
202,128	-25,26
202,347	-23,21
202,566	-2,73
202,785	50,52
203,004	-35,5
203,223	-31,4
203,442	9,56
203,661	17,75
203,879	56,66
204,098	-37,55
204,317	19,8
204,536	-41,64
204,755	-0,68
204,974	75,09
205,193	-12,97
205,411	-8,87
205,63	-47,79
205,849	73,04
206,068	-31,4
206,287	30,04
206,505	30,04
206,724	-33,45
206,943	46,42
207,162	-25,26
207,381	40,28
207,599	50,52
207,818	-19,11
208,037	-23,21
208,255	-10,92
208,474	-23,21
208,693	7,51
208,911	-10,92
209,13	87,38
209,349	56,66
209,567	-2,73
209,786	-15,02
210,005	48,47
210,223	-15,02
210,442	64,85
210,661	130,39
210,879	50,52
211,098	-10,92
211,316	-47,79
211,535	-15,02
211,753	36,18
211,972	17,75
212,191	-12,97
212,409	50,52
212,628	-80,55
212,846	-68,27
213,065	11,61
213,283	32,08
213,502	7,51
213,72	9,56
213,938	-58,03
214,157	79,19
214,375	-19,11
214,594	-15,02
214,812	42,32
215,031	50,52
215,249	-12,97
215,467	15,7
215,686	-0,68
215,904	13,65
216,122	-15,02
216,341	17,75
216,559	-12,97
216,778	58,71
216,996	-15,02
217,214	-72,36
217,432	-37,55
217,651	-25,26
217,869	13,65
218,087	11,61
218,306	19,8
218,524	-2,73
218,742	-0,68
218,96	-35,5
219,179	25,94
219,397	64,85
219,615	71
219,833	-15,02
220,051	19,8
220,27	-25,26
220,488	25,94
220,706	15,7
220,924	9,56
221,142	-49,83
221,36	1,37
221,578	27,99
221,796	58,71
222,015	30,04
222,233	71
222,451	46,42
222,669	66,9
222,887	-27,31
223,105	-8,87
223,323	9,56
223,541	5,46
223,759	-27,31
223,977	-41,64
224,195	17,75
224,413	50,52
224,631	23,89
224,849	17,75
225,067	-19,11
225,285	-80,55
225,503	17,75
225,721	-15,02
225,939	-8,87
226,157	30,04
226,375	-66,22
226,592	7,51
226,81	-17,07
227,028	-25,26
227,246	-15,02
227,464	1,37
227,682	46,42
227,9	5,46
228,117	21,85
228,335	9,56
228,553	-66,22
228,771	-6,83
228,989	-39,59
229,206	73,04
229,424	27,99
229,642	13,65
229,86	50,52
230,077	-15,02
230,295	-31,4
230,513	-6,83
230,731	-8,87
230,948	46,42
231,166	-29,35
231,384	9,56
231,601	38,23
231,819	-35,5
232,037	-31,4
232,254	34,13
232,472	48,47
232,689	-23,21
232,907	5,46
233,125	15,7
233,342	-19,11
233,56	56,66
233,777	25,94
233,995	-15,02
234,213	32,08
234,43	-64,17
234,648	58,71
234,865	7,51
235,083	38,23
235,3	-19,11
235,518	46,42
235,735	-60,07
235,953	9,56
236,17	-8,87
236,388	46,42
236,605	-6,83
236,822	-31,4
237,04	-43,69
237,257	15,7
237,475	54,61
237,692	66,9
237,909	-78,51
238,127	13,65
238,344	30,04
238,562	15,7
238,779	9,56
238,996	-47,79
239,214	-0,68
239,431	-19,11
239,648	17,75
239,865	-8,87
240,083	83,28
240,3	-23,21
240,517	-68,27
240,735	-0,68
240,952	34,13
241,169	-15,02
241,386	-4,78
241,603	-12,97
241,821	-17,07
242,038	-2,73
242,255	9,56
242,472	40,28
242,689	-43,69
242,907	9,56
243,124	25,94
243,341	-2,73
243,558	-25,26
243,775	-12,97
243,992	-37,55
244,209	-23,21
244,426	-31,4
244,643	17,75
244,86	11,61
245,078	-23,21
245,295	42,32
245,512	25,94
245,729	21,85
245,946	-23,21
246,163	-58,03
246,38	25,94
246,597	54,61
246,814	56,66
247,031	71
247,248	17,75
247,464	17,75
247,681	-43,69
247,898	17,75
248,115	1,37
248,332	17,75
248,549	-12,97
248,766	50,52
248,983	1,37
249,2	-41,64
249,417	50,52
249,633	23,89
249,85	-33,45
250,067	42,32
250,284	-33,45
250,501	-6,83
250,717	23,89
250,934	-0,68
251,151	25,94
251,368	-0,68
251,585	17,75
251,801	-2,73
252,018	-64,17
252,235	9,56
252,451	-19,11
252,668	68,95
252,885	48,47
253,102	32,08
253,318	-0,68
253,535	13,65
253,752	38,23
253,968	-51,88
254,185	7,51
254,401	-29,35
254,618	-0,68
254,835	-29,35
255,051	13,65
255,268	25,94
255,484	-10,92
255,701	-6,83
255,917	-49,83
256,134	-41,64
256,351	-19,11
256,567	-86,7
256,784	-35,5
257	-8,87
257,217	-23,21
257,433	-39,59
257,65	36,18
257,866	21,85
258,082	83,28
258,299	34,13
258,515	58,71
258,732	5,46
258,948	-39,59
259,165	23,89
259,381	-29,35
259,597	13,65
259,814	-60,07
260,03	-23,21
260,246	-39,59
260,463	-0,68
260,679	13,65
260,895	-6,83
261,112	5,46
261,328	-37,55
261,544	58,71
261,761	-35,5
261,977	30,04
262,193	-29,35
262,409	-35,5
262,626	-21,16
262,842	17,75
263,058	-111,27
263,274	32,08
263,49	-27,31
263,707	-129,7
263,923	-15,02
264,139	9,56
264,355	-58,03
264,571	1,37
264,787	-39,59
265,004	-23,21
265,22	1,37
265,436	17,75
265,652	46,42
265,868	-72,36
266,084	-8,87
266,3	13,65
266,516	-35,5
266,732	42,32
266,948	-82,6
267,164	32,08
267,38	1,37
267,596	56,66
267,812	-25,26
268,028	-10,92
268,244	-15,02
268,46	9,56
268,676	19,8
268,892	60,76
269,108	1,37
269,324	-6,83
269,54	1,37
269,756	17,75
269,972	73,04
270,188	46,42
270,403	-51,88
270,619	54,61
270,835	25,94
271,051	1,37
271,267	-43,69
271,483	1,37
271,698	-23,21
271,914	58,71
272,13	17,75
272,346	-25,26
272,562	15,7
272,777	40,28
272,993	75,09
273,209	-27,31
273,425	-58,03
273,64	5,46
273,856	-49,83
274,072	9,56
274,287	42,32
274,503	34,13
274,719	-39,59
274,934	-0,68
275,15	-6,83
275,366	42,32
275,581	-8,87
275,797	-15,02
276,012	-55,98
276,228	-10,92
276,444	5,46
276,659	27,99
276,875	-2,73
277,09	32,08
277,306	34,13
277,521	9,56
277,737	11,61
277,952	-35,5
278,168	21,85
278,383	36,18
278,599	23,89
278,814	58,71
279,03	66,9
279,245	21,85
279,461	9,56
279,676	-23,21
279,892	-41,64
280,107	9,56
280,322	-64,17
280,538	34,13
280,753	-49,83
280,969	17,75
281,184	17,75
281,399	27,99
281,615	1,37
281,83	-47,79
282,045	-10,92
282,26	-8,87
282,476	-17,07
282,691	9,56
282,906	-19,11
283,122	58,71
283,337	42,32
283,552	-4,78
283,767	32,08
283,983	-49,83
284,198	-23,21
284,413	13,65
284,628	-72,36
284,843	42,32
285,058	-23,21
285,274	-60,07
285,489	-92,84
285,704	21,85
285,919	9,56
286,134	32,08
286,349	81,24
286,564	32,08
286,779	21,85
286,995	-31,4
287,21	7,51
287,425	-6,83
287,64	-72,36
287,855	42,32
288,07	1,37
288,285	-55,98
288,5	-4,78
288,715	34,13
288,93	30,04
289,145	50,52
289,36	-0,68
289,575	44,37
289,79	1,37
290,004	-17,07
290,219	-23,21
290,434	-0,68
290,649	5,46
290,864	56,66
291,079	13,65
291,294	-39,59
291,509	34,13
291,724	-17,07
291,938	-64,17
292,153	17,75
292,368	-0,68
292,583	-23,21
292,798	7,51
293,012	40,28
293,227	44,37
293,442	-62,12
293,657	1,37
293,871	25,94
294,086	-41,64
294,301	-31,4
294,516	-27,31
294,73	7,51
294,945	-0,68
295,16	75,09
295,374	-74,41
295,589	-31,4
295,804	42,32
296,018	-35,5
296,233	-35,5
296,447	-10,92
296,662	-0,68
296,877	-25,26
297,091	-55,98
297,306	-0,68
297,52	54,61
297,735	-51,88
297,949	60,76
298,164	-60,07
298,378	-31,4
298,593	-21,16
298,807	62,8
299,022	46,42
299,236	46,42
299,451	-107,18
299,665	-31,4
299,88	1,37
300,094	-47,79
300,309	7,51
300,523	11,61
300,737	64,85
300,952	91,48
301,166	-21,16
301,381	17,75
301,595	7,51
301,809	-0,68
302,024	-23,21
302,238	23,89
302,452	-39,59
302,667	-25,26
302,881	1,37
303,095	-39,59
303,309	60,76
303,524	-15,02
303,738	-8,87
303,952	-39,59
304,166	44,37
304,381	-43,69
304,595	75,09
304,809	7,51
305,023	-19,11
305,237	38,23
305,452	-25,26
305,666	-12,97
305,88	-17,07
306,094	-17,07
306,308	11,61
306,522	9,56
306,736	23,89
306,95	-23,21
307,164	58,71
307,379	64,85
307,593	15,7
307,807	66,9
308,021	-47,79
308,235	-15,02
308,449	-47,79
308,663	13,65
308,877	-51,88
309,091	-23,21
309,305	32,08
309,519	-27,31
309,733	25,94
309,947	-27,31
310,161	23,89
310,374	7,51
310,588	-51,88
310,802	56,66
311,016	-8,87
311,23	1,37
311,444	-19,11
311,658	81,24
311,872	50,52
312,085	-88,75
312,299	-8,87
312,513	5,46
312,727	-6,83
312,941	-43,69
313,154	-27,31
313,368	42,32
313,582	25,94
313,796	32,08
314,009	9,56
314,223	30,04
314,437	50,52
314,651	7,51
314,864	114
315,078	56,66
315,292	46,42
315,505	5,46
315,719	7,51
315,933	-33,45
316,146	-29,35
316,36	36,18
316,573	1,37
316,787	23,89
317,001	-2,73
317,214	5,46
317,428	46,42
317,641	71
317,855	1,37
318,068	-8,87
318,282	-35,5
318,495	83,28
318,709	23,89
318,922	30,04
319,136	-6,83
319,349	13,65
319,563	13,65
319,776	62,8
319,99	23,89
320,203	17,75
320,417	19,8
320,63	-47,79
320,843	1,37
321,057	-31,4
321,27	21,85
321,483	30,04
321,697	23,89
321,91	-6,83
322,124	-41,64
322,337	58,71
322,55	3,41
322,763	-33,45
322,977	-23,21
323,19	-2,73
323,403	13,65
323,617	54,61
323,83	34,13
324,043	-2,73
324,256	13,65
324,469	30,04
324,683	38,23
324,896	40,28
325,109	50,52
325,322	5,46
325,535	91,48
325,748	5,46
325,962	66,9
326,175	-55,98
326,388	-10,92
326,601	-15,02
326,814	15,7
327,027	1,37
327,24	93,52
327,453	75,09
327,666	75,09
327,879	-39,59
328,092	17,75
328,305	30,04
328,518	-0,68
328,731	32,08
328,944	17,75
329,157	32,08
329,37	32,08
329,583	64,85
329,796	91,48
330,009	34,13
330,222	99,67
330,435	-19,11
330,648	46,42
330,861	34,13
331,073	50,52
331,286	71
331,499	40,28
331,712	3,41
331,925	48,47
332,138	-12,97
332,35	89,43
332,563	5,46
332,776	66,9
332,989	42,32
333,202	21,85
333,414	42,32
333,627	66,9
333,84	32,08
334,053	75,09
334,265	-21,16
334,478	-19,11
334,691	34,13
334,903	99,67
335,116	81,24
335,329	124,24
335,541	71
335,754	71
335,966	95,57
336,179	32,08
336,392	91,48
336,604	-10,92
336,817	25,94
337,029	9,56
337,242	71
337,454	85,33
337,667	87,38
337,88	68,95
338,092	62,8
338,305	122,2
338,517	62,8
338,729	124,24
338,942	42,32
339,154	79,19
339,367	114
339,579	109,91
339,792	64,85
340,004	103,76
340,217	52,56
340,429	148,82
340,641	34,13
340,854	122,2
341,066	91,48
341,278	179,54
341,491	99,67
341,703	124,24
341,915	93,52
342,128	130,39
342,34	159,06
342,552	124,24
342,764	175,44
342,977	93,52
343,189	89,43
343,401	81,24
343,613	89,43
343,826	89,43
344,038	56,66
344,25	58,71
344,462	68,95
344,674	111,96
344,886	161,11
345,099	54,61
345,311	75,09
345,523	118,1
345,735	85,33
345,947	60,76
346,159	75,09
346,371	87,38
346,583	116,05
346,795	83,28
347,007	140,63
347,219	89,43
347,431	124,24
347,643	140,63
347,855	38,23
348,067	64,85
348,279	150,87
348,491	107,86
348,703	95,57
348,915	191,83
349,127	103,76
349,339	111,96
349,551	118,1
349,763	95,57
349,975	111,96
350,187	189,78
350,399	214,35
350,61	179,54
350,822	169,3
351,034	191,83
351,246	91,48
351,458	116,05
351,669	146,77
351,881	157,01
352,093	148,82
352,305	124,24
352,517	150,87
352,728	247,12
352,94	161,11
353,152	204,11
353,363	255,31
353,575	195,92
353,787	144,72
353,999	294,22
354,21	189,78
354,422	161,11
354,633	263,51
354,845	157,01
355,057	130,39
355,268	154,96
355,48	202,07
355,692	157,01
355,903	154,96
356,115	136,53
356,326	148,82
356,538	114
356,749	46,42
356,961	116,05
357,172	177,49
357,384	130,39
357,595	62,8
357,807	187,73
358,018	124,24
358,23	148,82
358,441	140,63
358,653	200,02
358,864	306,51
359,075	238,93
359,287	236,88
359,498	197,97
359,709	255,31
359,921	222,55
360,132	212,31
360,344	195,92
360,555	206,16
360,766	273,75
360,977	197,97
361,189	171,35
361,4	187,73
361,611	204,11
361,823	247,12
362,034	214,35
362,245	324,94
362,456	236,88
362,667	312,66
362,879	294,22
363,09	302,42
363,301	279,89
363,512	394,58
363,723	288,08
363,935	255,31
364,146	335,18
364,357	341,33
364,568	382,29
364,779	488,78
364,99	478,54
365,201	443,73
365,412	458,06
365,623	505,17
365,834	529,74
366,045	496,97
366,256	439,63
366,467	550,22
366,678	398,67
366,889	488,78
367,1	533,84
367,311	548,17
367,522	437,58
367,733	492,88
367,944	513,36
368,155	439,63
368,366	542,03
368,577	597,32
368,788	515,41
368,999	558,41
369,209	474,45
369,42	544,08
369,631	484,69
369,842	582,99
370,053	466,25
370,264	527,69
370,474	492,88
370,685	542,03
370,896	499,02
371,107	525,65
371,317	443,73
371,528	435,53
371,739	433,49
371,95	402,77
372,16	431,44
372,371	449,87
372,582	372,05
372,792	281,94
373,003	288,08
373,214	394,58
373,424	339,28
373,635	353,62
373,846	378,19
374,056	386,38
374,267	361,81
374,477	464,21
374,688	345,42
374,898	476,49
375,109	484,69
375,319	474,45
375,53	507,21
375,74	599,37
375,951	574,8
376,161	755,02
376,372	703,82
376,582	736,59
376,793	800,07
377,003	851,27
377,214	832,84
377,424	892,23
377,635	965,96
377,845	974,15
378,055	738,63
378,266	750,92
378,476	761,16
378,686	746,83
378,897	738,63
379,107	699,72
379,317	628,04
379,528	863,56
379,738	636,24
379,948	785,74
380,158	695,63
380,369	703,82
380,579	574,8
380,789	585,04
380,999	550,22
381,21	482,64
381,42	464,21
381,63	388,43
381,84	288,08
382,05	296,27
382,261	271,7
382,471	222,55
382,681	286,03
382,891	326,99
383,101	329,04
383,311	345,42
383,521	353,62
383,731	460,11
383,941	449,87
384,151	449,87
384,361	552,27
384,571	650,57
384,781	621,9
384,991	640,33
385,201	570,7
385,411	468,3
385,621	603,47
385,831	720,2
386,041	656,72
386,251	605,52
386,461	537,93
386,671	722,25
386,881	550,22
387,091	656,72
387,301	626
387,511	550,22
387,72	550,22
387,93	619,85
388,14	681,29
388,35	779,59
388,56	843,08
388,769	908,62
388,979	849,22
389,189	1058,12
389,399	1006,92
389,609	1113,41
389,818	1027,4
390,028	1129,8
390,238	1189,19
390,447	1224
390,657	1056,07
390,867	1056,07
391,076	853,32
391,286	972,1
391,496	750,92
391,705	769,35
391,915	527,69
392,125	490,83
392,334	290,13
392,544	275,79
392,753	279,89
392,963	353,62
393,172	312,66
393,382	472,4
393,591	482,64
393,801	638,28
394,01	679,24
394,22	783,69
394,429	974,15
394,639	949,57
394,848	783,69
395,058	869,7
395,267	752,97
395,477	648,52
395,686	623,95
395,895	517,45
396,105	566,6
396,314	533,84
396,524	582,99
396,733	681,29
396,942	773,45
397,152	986,44
397,361	1181
397,57	1391,94
397,78	1408,32
397,989	1686,84
398,198	1817,91
398,407	2006,33
398,617	1977,66
398,826	2237,75
399,035	2141,49
399,244	2145,59
399,453	1998,13
399,663	2354,48
399,872	2247,99
400,081	2397,49
400,29	2262,32
400,499	2491,7
400,708	2356,53
400,917	2698,54
401,127	2473,26
401,336	2620,72
401,545	2450,74
401,754	2540,85
401,963	2530,61
402,172	2549,04
402,381	2405,68
402,59	2622,77
402,799	2481,46
403,008	2610,48
403,217	2301,23
403,426	2481,46
403,635	2377,01
403,844	2426,16
404,053	2348,34
404,262	2440,5
404,471	2366,77
404,68	2532,65
404,888	2243,89
405,097	2344,24
405,306	2344,24
405,515	2475,31
405,724	2114,87
405,933	2620,72
406,142	2170,16
406,35	2309,43
406,559	2635,05
406,768	2592,05
406,977	2383,15
407,185	2614,57
407,394	2473,26
407,603	2895,15
407,812	2669,87
408,02	2772,27
408,229	2467,12
408,438	2778,41
408,646	2659,63
408,855	2598,19
409,064	2553,13
409,272	2544,94
409,481	2741,55
409,69	2602,29
409,898	2368,82
410,107	2733,36
410,315	2657,58
410,524	2893,1
410,733	2784,55
410,941	2952,49
411,15	3052,84
411,358	3024,17
411,567	2972,97
411,775	3116,33
411,984	2907,43
412,192	3061,03
412,401	2835,75
412,609	3089,7
412,818	2903,34
413,026	3079,46
413,234	2946,34
413,443	3122,47
413,651	2950,44
413,86	2981,16
414,068	2964,78
414,276	3108,13
414,485	3044,65
414,693	3026,22
414,901	2940,2
415,11	3163,43
415,318	2884,91
415,526	3093,8
415,734	3093,8
415,943	3245,35
416,151	2909,48
416,359	3048,74
416,567	2680,11
416,776	2946,34
416,984	2788,65
417,192	2942,25
417,4	2755,88
417,608	2673,96
417,817	2721,07
418,025	2823,47
418,233	2833,71
418,441	2925,86
418,649	2811,18
418,857	2956,58
419,065	2778,41
419,273	2835,75
419,481	2862,38
419,689	3015,98
419,897	3110,18
420,105	3233,06
420,313	3024,17
420,521	3208,48
420,729	2845,99
420,937	3022,12
421,145	2884,91
421,353	3069,22
421,561	2827,56
421,769	2983,21
421,977	2884,91
422,185	2852,14
422,393	2895,15
422,601	2989,35
422,809	2676,01
423,017	2958,63
423,224	2817,32
423,432	2944,3
423,64	2712,88
423,848	3153,19
424,056	2786,6
424,263	3065,13
424,471	2913,58
424,679	2868,52
424,887	2829,61
425,094	3063,08
425,302	2757,93
425,51	3114,28
425,718	2745,64
425,925	2798,89
426,133	2663,72
426,341	2860,33
426,548	2802,99
426,756	2741,55
426,964	2702,64
427,171	3071,27
427,379	2733,36
427,586	2725,16
427,794	2809,13
428,001	2839,85
428,209	2721,07
428,417	2561,33
428,624	2635,05
428,832	2344,24
429,039	2039,09
429,247	2155,83
429,454	1991,99
429,662	2307,38
429,869	1848,63
430,076	2010,42
430,284	1916,22
430,491	2182,45
430,699	2407,73
430,906	2708,78
431,114	2608,43
431,321	3114,28
431,528	2802,99
431,736	3351,84
431,943	3327,27
432,15	3284,26
432,358	3249,44
432,565	3188
432,772	2989,35
432,979	3390,75
433,187	3161,38
433,394	3181,86
433,601	3327,27
433,808	3429,66
434,016	3179,81
434,223	3538,21
434,43	3669,28
434,637	3679,52
434,844	3716,38
435,052	3999
435,259	3835,16
435,466	3843,35
435,673	3790,11
435,88	4121,88
436,087	4199,7
436,294	4261,14
436,501	3849,5
436,708	3876,12
436,915	3603,74
437,122	3929,37
437,329	3538,21
437,537	3618,08
437,743	3585,31
437,95	3464,48
438,157	3609,89
438,364	3863,83
438,571	3786,01
438,778	3843,35
438,985	4072,73
439,192	4015,38
439,399	3968,28
439,606	3671,33
439,813	4101,4
440,02	4312,34
440,227	4105,49
440,433	4136,21
440,64	4371,73
440,847	4275,48
441,054	4396,31
441,261	4652,3
441,467	4351,25
441,674	4625,68
441,881	4467,99
442,088	4570,38
442,294	4392,21
442,501	4668,69
442,708	4416,79
442,914	4678,93
443,121	4660,49
443,328	4676,88
443,534	4816,14
443,741	4752,65
443,948	4379,92
444,154	4855,05
444,361	4586,77
444,568	4390,16
444,774	4125,97
444,981	4232,47
445,187	4185,37
445,394	4396,31
445,6	4330,77
445,807	4818,19
446,013	4353,3
446,22	4652,3
446,426	4613,39
446,633	4754,7
446,839	4785,42
447,046	4742,41
447,252	4810
447,459	4969,74
447,665	4603,15
447,871	4932,87
448,078	4941,07
448,284	4799,76
448,491	4654,35
448,697	5063,94
448,903	4943,11
449,11	5121,29
449,316	4779,28
449,522	5029,13
449,728	5188,87
449,935	5244,17
450,141	5289,22
450,347	5231,88
450,553	4865,29
450,76	4953,35
450,966	5041,42
451,172	5154,05
451,378	5100,81
451,584	5029,13
451,791	4807,95
451,997	4781,32
452,203	4777,23
452,409	4711,69
452,615	4863,24
452,821	4637,97
453,027	4351,25
453,233	4945,16
453,44	4678,93
453,646	4936,97
453,852	4906,25
454,058	5055,75
454,264	4797,71
454,47	5121,29
454,676	4896,01
454,882	5506,31
455,088	4848,91
455,294	5317,89
455,5	5242,12
455,705	5561,6
455,911	5408
456,117	5313,8
456,323	5215,49
456,529	5197,06
456,735	5391,62
456,941	5412,1
457,147	5332,23
457,352	5420,29
457,558	5055,75
457,764	5362,95
457,97	5385,48
458,176	5195,01
458,381	5334,28
458,587	5254,41
458,793	5285,12
458,999	5252,36
459,204	5805,31
459,41	6006,01
459,616	5465,35
459,821	5866,75
460,027	5850,36
460,233	5948,67
460,438	5580,03
460,644	5989,63
460,85	5782,78
461,055	6044,92
461,261	5881,08
461,466	5715,2
461,672	5410,05
461,878	6311,16
462,083	5913,85
462,289	5887,23
462,494	5969,15
462,7	5723,39
462,905	5555,46
463,111	5772,54
463,316	5891,32
463,522	5897,47
463,727	6124,79
463,932	6141,18
464,138	6382,84
464,343	6214,9
464,549	6210,81
464,754	6692,08
464,959	6579,44
465,165	6853,87
465,37	6505,71
465,575	6423,8
465,781	6761,71
465,986	6710,51
466,191	6464,75
466,397	6565,11
466,602	6309,11
466,807	6520,05
467,012	6757,61
467,218	6798,57
467,423	6939,88
467,628	7171,3
467,833	7509,22
468,038	7249,13
468,244	7173,35
468,449	7470,31
468,654	7308,52
468,859	7576,8
469,064	7412,96
469,269	7085,29
469,474	7263,46
469,679	7494,88
469,885	7185,64
470,09	7587,04
470,295	7787,74
470,5	7617,76
470,705	7650,53
470,91	7826,65
471,115	7988,44
471,32	8406,23
471,525	8289,49
471,73	8525,01
471,935	8441,04
472,139	8414,42
472,344	8359,13
472,549	8520,92
472,754	8479,96
472,959	8723,66
473,164	8217,82
473,369	8619,22
473,574	9032,91
473,778	9266,38
473,983	9258,18
474,188	9520,32
474,393	8930,51
474,598	9309,38
474,802	9391,3
475,007	9454,79
475,212	9510,08
475,417	9430,21
475,621	9422,02
475,826	9757,89
476,031	9495,75
476,235	9786,56
476,44	10091,71
476,645	9974,97
476,849	10413,24
477,054	10593,46
477,259	10525,88
477,463	10773,68
477,668	10443,96
477,872	10812,59
478,077	10601,65
478,282	10652,85
478,486	10620,08
478,691	10880,18
478,895	10964,14
479,1	11003,05
479,304	11082,92
479,509	10882,22
479,713	11205,8
479,918	11205,8
480,122	11095,21
480,326	11379,88
480,531	11654,31
480,735	11558,05
480,94	11523,24
481,144	12371,1
481,348	11474,09
481,553	11973,79
481,757	11517,09
481,961	12078,24
482,166	12084,38
482,37	12039,33
482,574	11699,36
482,778	12172,44
482,983	12201,12
483,187	12203,16
483,391	12205,21
483,595	12082,33
483,8	11945,12
484,004	12295,32
484,208	12080,28
484,412	11818,15
484,616	11469,99
484,821	11193,51
485,025	10998,96
485,229	11001,01
485,433	10333,37
485,637	10575,03
485,841	10529,97
486,045	10372,28
486,249	10814,64
486,453	10871,98
486,657	11261,1
486,861	11809,95
487,065	11175,08
487,269	11965,6
487,473	11977,89
487,677	12373,14
487,881	12147,87
488,085	12510,36
488,289	12487,83
488,493	12608,66
488,697	12672,15
488,901	12944,53
489,105	12825,75
489,309	13309,07
489,512	13259,91
489,716	13419,66
489,92	13159,56
490,124	13128,84
490,328	13253,77
490,531	13309,07
490,735	12874,9
490,939	12895,38
491,143	12817,55
491,346	12678,29
491,55	12784,79
491,754	13157,52
491,958	12825,75
492,161	12932,24
492,365	13278,35
492,569	13071,5
492,772	13130,89
492,976	13278,35
493,18	13438,09
493,383	13427,85
493,587	13444,23
493,79	13669,51
493,994	13802,63
494,197	13960,32
494,401	13935,74
494,605	13829,25
494,808	14097,53
495,012	13868,16
495,215	13585,54
495,419	13872,26
495,622	13773,96
495,825	13835,39
496,029	13714,56
496,232	14060,67
496,436	13585,54
496,639	13964,42
496,843	13802,63
497,046	13898,88
497,249	13870,21
497,453	13659,27
497,656	13538,44
497,859	13460,62
498,063	13599,88
498,266	13517,96
498,469	13591,69
498,673	13657,22
498,876	13522,06
499,079	13626,5
499,282	13173,9
499,485	13493,38
499,689	13239,44
499,892	13255,82
500,095	12917,9
500,298	13335,69
500,501	13186,19
500,705	13296,78
500,908	13157,52
501,111	13173,9
501,314	12958,86
501,517	12965,01
501,72	13139,08
501,923	13243,53
502,126	13528,2
502,329	13628,55
502,532	13315,21
502,735	13485,19
502,938	13313,16
503,141	13608,07
503,344	13563,01
503,547	13173,9
503,75	13167,76
503,953	13546,63
504,156	13395,08
504,359	13618,31
504,562	13354,12
504,765	13827,2
504,968	13784,19
505,17	13986,94
505,373	14050,43
505,576	13978,75
505,779	14122,11
505,982	14181,5
506,185	13786,24
506,387	14013,57
506,59	13769,86
506,793	13778,05
506,996	13237,39
507,198	13839,49
507,401	13816,96
507,604	13599,88
507,807	13554,82
508,009	13706,37
508,212	14083,2
508,415	14216,32
508,617	14038,14
508,82	14275,71
509,022	13816,96
509,225	14388,35
509,428	13945,98
509,63	13907,07
509,833	13841,54
510,035	14056,57
510,238	13982,85
510,44	14242,94
510,643	14326,91
510,845	14427,26
511,048	14365,82
511,25	14140,54
511,453	13956,22
511,655	14519,42
511,858	14204,03
512,06	13911,17
512,262	13902,98
512,465	13673,6
512,667	14173,31
512,87	13921,41
513,072	13606,02
513,274	13771,91
513,477	13909,12
513,679	13612,17
513,881	13812,87
514,084	13827,2
514,286	13440,14
514,488	13870,21
514,69	14120,06
514,893	14201,98
515,095	14171,26
515,297	13845,63
515,499	13870,21
515,701	13614,21
515,904	13210,76
516,106	12795,03
516,308	12311,71
516,51	12477,59
516,712	12438,68
516,914	12485,78
517,116	12553,37
517,318	12639,38
517,52	12678,29
517,722	12715,16
517,925	12944,53
518,127	13321,35
518,329	13112,46
518,531	13530,25
518,733	13462,66
518,935	13857,92
519,136	13890,69
519,338	14351,48
519,54	14056,57
519,742	14267,52
519,944	14091,39
520,146	14556,28
520,348	14517,37
520,55	14597,24
520,752	14437,5
520,954	14998,64
521,155	14705,78
521,357	15101,04
521,559	14867,57
521,761	14976,11
521,963	14609,53
522,164	14570,61
522,366	14363,77
522,568	14742,64
522,77	14861,43
522,971	15228,01
523,173	15279,21
523,375	15465,58
523,576	15256,68
523,778	15406,19
523,98	15361,13
524,181	15479,91
524,383	15129,71
524,584	15645,8
524,786	15443,05
524,988	14840,95
525,189	15185,01
525,391	15045,74
525,592	14617,72
525,794	14328,95
525,995	14007,42
526,197	13829,25
526,398	13864,07
526,6	14007,42
526,801	13929,6
527,003	14283,9
527,204	14363,77
527,406	14390,39
527,607	14521,46
527,808	15055,98
528,01	15078,51
528,211	14972,02
528,412	15064,18
528,614	15172,72
528,815	14890,1
529,016	15203,44
529,218	14941,3
529,419	15070,32
529,62	14799,99
529,822	14931,06
530,023	14900,34
530,224	15148,14
530,425	15316,08
530,626	14926,96
530,828	14799,99
531,029	15354,99
531,23	14693,49
531,431	14550,14
531,632	14441,59
531,833	14507,13
532,035	13905,03
532,236	14097,53
532,437	14165,12
532,638	14009,47
532,839	14228,6
533,04	14431,35
533,241	14144,64
533,442	14238,84
533,643	13853,83
533,844	14214,27
534,045	14148,73
534,246	14288
534,447	14234,75
534,648	14367,87
534,849	14754,93
535,05	14384,25
535,251	14750,84
535,451	14541,94
535,652	14140,54
535,853	14148,73
536,054	13646,98
536,255	13902,98
536,456	13583,49
536,657	14040,19
536,857	13753,48
537,058	13577,35
537,259	13915,26
537,46	13907,07
537,66	13753,48
537,861	13810,82
538,062	13659,27
538,263	13974,66
538,463	13376,65
538,664	13874,31
538,865	13276,3
539,065	13591,69
539,266	13126,8
539,466	13042,83
539,667	12792,98
539,868	13096,08
540,068	12453,02
540,269	12934,29
540,469	12962,96
540,67	12999,82
540,87	12983,44
541,071	13214,86
541,271	13157,52
541,472	13071,5
541,672	12956,82
541,873	13024,4
542,073	13032,59
542,274	13331,59
542,474	12885,14
542,675	12962,96
542,875	12973,2
543,075	12969,1
543,276	12825,75
543,476	13106,32
543,676	13005,97
543,877	13280,39
544,077	13227,15
544,277	12969,1
544,478	12905,62
544,678	13081,74
544,878	12987,54
545,078	13016,21
545,279	12856,47
545,479	12891,28
545,679	12936,34
545,879	12661,91
546,079	12696,72
546,28	12803,22
546,48	12455,06
546,68	12991,63
546,88	12745,87
547,08	12655,76
547,28	12465,3
547,48	12514,45
547,68	12848,27
547,88	12795,03
548,081	12934,29
548,281	12760,21
548,481	12731,54
548,681	13059,21
548,881	12506,26
549,081	12776,59
549,28	12493,97
549,48	12844,18
549,68	12567,7
549,88	12790,93
550,08	12571,8
550,28	12782,74
550,48	12608,66
550,68	12825,75
550,88	12412,06
551,08	12790,93
551,279	12629,14
551,479	12579,99
551,679	12532,89
551,879	12698,77
552,079	12498,07
552,278	12571,8
552,478	12518,55
552,678	12469,4
552,878	12291,23
553,077	12481,69
553,277	12483,73
553,477	12784,79
553,676	12367
553,876	12534,93
554,076	12311,71
554,275	12686,48
554,475	12520,6
554,674	12639,38
554,874	12614,8
555,074	12563,61
555,273	12563,61
555,473	12668,05
555,672	12309,66
555,872	12260,51
556,071	12266,65
556,271	12342,42
556,47	12219,55
556,67	12166,3
556,869	11914,4
557,068	12113,05
557,268	11797,67
557,467	12047,52
557,667	11723,94
557,866	11924,64
558,065	11664,55
558,265	11855,01
558,464	11340,97
558,663	11482,28
558,863	11517,09
559,062	11986,08
559,261	11633,83
559,461	11830,43
559,66	11523,24
559,859	11740,32
560,058	11703,46
560,258	11887,78
560,457	11762,85
560,656	12172,44
560,855	11691,17
561,054	11842,72
561,253	11484,33
561,453	11625,64
561,652	11574,44
561,851	11785,38
562,05	11824,29
562,249	11586,72
562,448	11768,99
562,647	11879,58
562,846	11779,23
563,045	11814,05
563,244	11566,24
563,443	12051,61
563,642	11445,41
563,841	11918,5
564,04	11547,81
564,239	12209,31
564,438	11818,15
564,637	11680,93
564,836	11508,9
565,035	11639,97
565,234	11386,02
565,432	11308,2
565,631	11328,68
565,83	11486,37
566,029	11377,83
566,228	11613,35
566,427	11545,77
566,625	11437,22
566,824	11467,94
567,023	11592,87
567,222	11322,54
567,42	11662,5
567,619	11162,8
567,818	11322,54
568,016	11207,85
568,215	11365,54
568,414	11121,84
568,612	11353,26
568,811	11183,27
569,01	11394,22
569,208	11101,36
569,407	11404,46
569,605	10978,48
569,804	11125,93
570,002	10779,82
570,201	10994,86
570,4	10945,71
570,598	11035,82
570,797	10994,86
570,995	10929,33
571,193	11084,97
571,392	11271,34
571,59	11003,05
571,789	11412,65
571,987	11070,64
572,186	11209,9
572,384	10966,19
572,582	11183,27
572,781	11084,97
572,979	11216,04
573,177	11185,32
573,376	11400,36
573,574	11226,28
573,772	11189,42
573,971	11189,42
574,169	11121,84
574,367	10898,61
574,565	10933,42
574,763	10986,67
574,962	10818,74
575,16	10925,23
575,358	10976,43
575,556	10689,71
575,754	11263,15
575,952	10785,97
576,151	10876,08
576,349	10638,51
576,547	11035,82
576,745	10874,03
576,943	10880,18
577,141	10806,45
577,339	10919,09
577,537	10544,31
577,735	10339,51
577,933	10650,8
578,131	10781,87
578,329	10501,3
578,527	10706,1
578,725	10706,1
578,923	10716,34
579,121	10562,74
579,319	10851,5
579,516	11125,93
579,714	10839,22
579,912	10849,46
580,11	10921,13
580,308	10835,12
580,506	10955,95
580,704	10536,12
580,901	10839,22
581,099	10933,42
581,297	10847,41
581,495	10732,72
581,692	11105,45
581,89	10869,94
582,088	11127,98
582,285	11027,63
582,483	11314,34
582,681	10996,91
582,878	10984,62
583,076	10745,01
583,274	11056,3
583,471	10677,43
583,669	11044,01
583,866	10945,71
584,064	10949,81
584,262	10695,86
584,459	10779,82
584,657	10529,97
584,854	10609,84
585,052	10331,32
585,249	10333,37
585,447	10478,77
585,644	10343,61
585,841	10314,94
586,039	10894,51
586,236	10546,36
586,434	10462,39
586,631	10446,01
586,828	10802,35
587,026	10544,31
587,223	10601,65
587,42	10658,99
587,618	10224,83
587,815	10108,09
588,012	9860,29
588,21	9733,31
588,407	9626,82
588,604	9225,42
588,801	9311,43
588,999	9493,7
589,196	9559,24
589,393	9450,69
589,59	9522,37
589,787	9565,38
589,984	9872,57
590,182	9702,59
590,379	9938,11
590,576	9868,48
590,773	10001,6
590,97	9766,08
591,167	10071,23
591,364	10036,41
591,561	10239,16
591,758	9804,99
591,955	10124,47
592,152	10165,43
592,349	10255,54
592,546	9944,25
592,743	10003,64
592,94	9708,74
593,137	10302,65
593,334	10067,13
593,531	9714,88
593,727	9948,35
593,924	10187,96
594,121	9852,09
594,318	9966,78
594,515	9706,69
594,712	9893,05
594,908	9868,48
595,105	9905,34
595,302	9608,39
595,499	9739,46
595,696	9657,54
595,892	9823,42
596,089	9966,78
596,286	9657,54
596,482	9608,39
596,679	9557,19
596,876	9635,01
597,072	9688,26
597,269	9516,23
597,466	9508,04
597,662	9311,43
597,859	9391,3
598,055	9508,04
598,252	9297,1
598,448	9438,41
598,645	9370,82
598,841	9364,68
599,038	9804,99
599,234	9305,29
599,431	9409,73
599,627	9043,15
599,824	9393,35
600,02	9305,29
600,217	9305,29
600,413	9092,3
600,609	9325,77
600,806	9297,1
601,002	9387,21
601,198	9129,16
601,395	9020,62
601,591	9026,76
601,787	9149,64
601,984	9340,1
602,18	9249,99
602,376	9200,84
602,572	9235,66
602,769	9209,03
602,965	9278,66
603,161	9405,64
603,357	9501,89
603,553	9245,9
603,75	9340,1
603,946	9274,57
604,142	9366,73
604,338	9247,94
604,534	9360,58
604,73	9247,94
604,926	9348,29
605,122	9460,93
605,318	9229,51
605,514	9075,91
605,71	9434,31
605,906	9305,29
606,102	9190,6
606,298	9102,54
606,494	9118,92
606,69	9166,03
606,886	9360,58
607,082	9225,42
607,278	9336,01
607,474	8967,37
607,67	9458,89
607,866	9041,1
608,062	9397,45
608,257	9364,68
608,453	9049,29
608,649	8950,99
608,845	9211,08
609,041	9231,56
609,236	9264,33
609,432	9075,91
609,628	9313,48
609,824	9352,39
610,019	9016,52
610,215	8981,71
610,411	9127,11
610,606	9147,59
610,802	9354,44
610,998	9014,48
611,193	9288,9
611,389	9213,13
611,584	9198,79
611,78	9114,83
611,976	9073,87
612,171	9311,43
612,367	9166,03
612,562	9209,03
612,758	8910,03
612,953	9239,75
613,149	9112,78
613,344	9112,78
613,539	9340,1
613,735	9135,31
613,93	9159,88
614,126	9204,94
614,321	9358,53
614,517	9354,44
614,712	9245,9
614,907	9139,4
615,103	9344,2
615,298	9139,4
615,493	9368,77
615,688	9065,67
615,884	9295,05
616,079	8832,21
616,274	9340,1
616,47	9137,35
616,665	9270,47
616,86	9200,84
617,055	9362,63
617,25	9436,36
617,445	9575,62
617,641	9331,91
617,836	9751,74
618,031	9401,54
618,226	9802,94
618,421	9528,52
618,616	9610,43
618,811	9327,82
619,006	9637,06
619,201	9473,22
619,396	9692,35
619,591	9438,41
619,786	9802,94
619,981	9454,79
620,176	9675,97
620,371	9522,37
620,566	9581,76
620,761	9438,41
620,956	9458,89
621,151	9041,1
621,346	9540,8
621,541	9295,05
621,735	9460,93
621,93	9086,15
622,125	9198,79
622,32	8838,35
622,515	9317,58
622,709	8963,28
622,904	8991,95
623,099	9028,81
623,294	9323,72
623,488	8957,13
623,683	9299,14
623,878	8803,53
624,072	8834,25
624,267	8864,97
624,462	8856,78
624,656	8543,44
624,851	8815,82
625,046	8666,32
625,24	8901,84
625,435	8707,28
625,629	8756,43
625,824	8553,68
626,018	8649,94
626,213	8527,06
626,407	8572,11
626,602	8551,63
626,796	8656,08
626,991	8332,5
627,185	8344,79
627,38	8088,79
627,574	8125,66
627,768	8045,79
627,963	8062,17
628,157	7931,1
628,352	8228,06
628,546	8033,5
628,74	8226,01
628,935	8062,17
629,129	8010,97
629,323	7941,34
629,517	8049,88
629,712	7857,37
629,906	8228,06
630,1	7888,09
630,294	7939,29
630,489	7935,2
630,683	8041,69
630,877	7632,1
631,071	7970,01
631,265	7697,63
631,459	7836,89
631,653	7789,79
631,848	7941,34
632,042	8019,16
632,236	8072,41
632,43	7978,2
632,624	8037,59
632,818	7886,05
633,012	7980,25
633,206	7843,04
633,4	7832,8
633,594	7640,29
633,788	7933,15
633,982	7961,82
634,176	8076,51
634,369	7910,62
634,563	7896,28
634,757	7849,18
634,951	7896,28
635,145	7718,11
635,339	7740,64
635,533	7675,1
635,726	7896,28
635,92	7668,96
636,114	7814,37
636,308	7693,54
636,501	7832,8
636,695	7703,78
636,889	7705,82
637,083	7671,01
637,276	7705,82
637,47	7671,01
637,664	7714,02
637,857	7806,17
638,051	7857,37
638,244	7572,71
638,438	7714,02
638,632	7634,14
638,825	7580,9
639,019	7476,45
639,212	7701,73
639,406	7619,81
639,599	7617,76
639,793	7525,6
639,986	7361,76
640,18	7462,12
640,373	7537,89
640,567	7120,1
640,76	7273,7
640,954	7181,54
641,147	7324,9
641,34	7142,63
641,534	7296,23
641,727	7216,36
641,92	7470,31
642,114	7165,16
642,307	7546,08
642,5	7394,53
642,694	7193,83
642,887	7288,04
643,08	7445,73
643,273	7013,61
643,467	7298,28
643,66	7222,5
643,853	7095,53
644,046	6937,84
644,239	7337,19
644,432	6980,84
644,626	7271,65
644,819	6946,03
645,012	7152,87
645,205	7027,95
645,398	6952,17
645,591	6853,87
645,784	7199,98
645,977	6935,79
646,17	6946,03
646,363	6929,64
646,556	6784,24
646,749	6845,68
646,942	6948,08
647,135	6831,34
647,328	6814,96
647,521	6939,88
647,714	6898,92
647,907	6874,35
648,099	6939,88
648,292	6804,72
648,485	6794,48
648,678	6585,58
648,871	6857,96
649,064	6638,83
649,256	6653,17
649,449	6593,78
649,642	6737,13
649,835	6677,74
650,027	6581,49
650,22	6550,77
650,413	6896,88
650,605	6814,96
650,798	6946,03
650,991	6587,63
651,183	6774
651,376	6481,14
651,568	6743,28
651,761	6708,46
651,954	6505,71
652,146	6489,33
652,339	6667,5
652,531	6632,69
652,724	6505,71
652,916	6610,16
653,109	6585,58
653,301	6548,72
653,494	6866,16
653,686	6563,06
653,879	6554,87
654,071	6477,04
654,263	6462,71
654,456	6309,11
654,648	6151,42
654,84	6137,08
655,033	6079,74
655,225	5698,81
655,417	5616,9
655,61	5195,01
655,802	5211,4
655,994	5027,08
656,186	5209,35
656,379	5135,62
656,571	5440,77
656,763	5571,84
656,955	5676,29
657,148	5750,01
657,34	5942,52
657,532	6026,49
657,724	6116,6
657,916	5889,28
658,108	6077,69
658,3	5981,43
658,492	6128,89
658,684	5928,19
658,876	6348,02
659,068	6130,94
659,26	6044,92
659,452	6087,93
659,644	6255,86
659,836	5971,19
660,028	6173,94
660,22	6046,97
660,412	6274,29
660,604	5973,24
660,796	6339,83
660,988	6110,46
661,18	5940,47
661,372	6169,85
661,563	6165,75
661,755	6042,87
661,947	6075,64
662,139	5989,63
662,331	6268,15
662,522	6083,83
662,714	6128,89
662,906	5965,05
663,097	6112,5
663,289	5936,38
663,481	5741,82
663,673	5702,91
663,864	6046,97
664,056	5858,56
664,247	6081,78
664,439	5850,36
664,631	6137,08
664,822	6059,26
665,014	6001,91
665,205	5807,36
665,397	6112,5
665,588	5981,43
665,78	5940,47
665,971	5956,86
666,163	5954,81
666,354	5770,49
666,546	6006,01
666,737	5829,88
666,929	5809,4
667,12	5733,63
667,311	5809,4
667,503	5774,59
667,694	5815,55
667,885	5514,5
668,077	6079,74
668,268	5774,59
668,459	5883,13
668,651	5670,14
668,842	5733,63
669,033	5608,7
669,224	5764,35
669,416	5604,61
669,607	5715,2
669,798	5641,47
669,989	5715,2
670,18	5514,5
670,371	5661,95
670,563	5635,33
670,754	5819,64
670,945	5448,96
671,136	5422,34
671,327	5289,22
671,518	5555,46
671,709	5383,43
671,9	5530,88
672,091	5405,95
672,282	5448,96
672,473	5428,48
672,664	5444,87
672,855	5207,3
673,046	5491,97
673,237	5504,26
673,428	5534,98
673,619	5338,37
673,809	5457,15
674	5285,12
674,191	5270,79
674,382	5102,86
674,573	5383,43
674,764	5219,59
674,954	5235,97
675,145	5317,89
675,336	5518,59
675,527	5391,62
675,717	5420,29
675,908	5264,65
676,099	5256,45
676,289	5293,32
676,48	5311,75
676,671	4998,41
676,861	5276,93
677,052	5272,84
677,243	5170,44
677,433	5303,56
677,624	5481,73
677,814	5127,43
678,005	5065,99
678,195	5178,63
678,386	5381,38
678,576	4992,27
678,767	5213,45
678,957	4936,97
679,148	5111,05
679,338	5059,85
679,529	5080,33
679,719	4977,93
679,909	5211,4
680,1	4992,27
680,29	4982,03
680,481	5047,56
680,671	5287,17
680,861	4990,22
681,052	5174,53
681,242	4838,67
681,432	5135,62
681,622	5020,94
681,813	5168,39
682,003	4881,67
682,193	4965,64
682,383	4896,01
682,573	5039,37
682,764	4728,08
682,954	4996,36
683,144	4865,29
683,334	5057,8
683,524	4812,04
683,714	4797,71
683,904	4834,57
684,094	4758,8
684,284	4633,87
684,474	4691,21
684,664	4660,49
684,854	4990,22
685,044	4846,86
685,234	4883,72
685,424	4728,08
685,614	4785,42
685,804	4357,39
685,994	4349,2
686,184	3923,23
686,374	3933,47
686,564	3302,69
686,753	3040,55
686,943	2827,56
687,133	2882,86
687,323	2940,2
687,513	3208,48
687,702	2942,25
687,892	3388,71
688,082	3218,72
688,272	3511,58
688,461	3464,48
688,651	3237,16
688,841	3267,88
689,03	3380,51
689,22	3278,12
689,41	3497,25
689,599	3294,5
689,789	3497,25
689,979	3595,55
690,168	3669,28
690,358	3595,55
690,547	3802,4
690,737	3722,52
690,926	3810,59
691,116	3620,13
691,305	4013,34
691,495	3783,96
691,684	3990,81
691,874	3970,33
692,063	4148,5
692,252	3869,98
692,442	4144,41
692,631	3931,42
692,82	4171,03
693,01	4003,1
693,199	4211,99
693,388	4039,96
693,578	4179,22
693,767	3994,9
693,956	4179,22
694,146	4218,13
694,335	4220,18
694,524	3996,95
694,713	4177,17
694,902	3962,14
695,092	4494,61
695,281	4001,05
695,47	4261,14
695,659	3972,38
695,848	4181,27
696,037	4089,11
696,226	4351,25
696,415	4152,6
696,604	4265,24
696,793	4123,93
696,982	4203,8
697,171	4228,37
697,36	4326,68
697,549	4095,25
697,738	4275,48
697,927	4003,1
698,116	4257,04
698,305	4193,56
698,494	4097,3
698,683	4171,03
698,872	4025,62
699,061	4050,2
699,25	4095,25
699,438	4068,63
699,627	4150,55
699,816	3777,82
700,005	4054,3
700,193	3964,18
700,382	3933,47
700,571	3708,19
700,76	3876,12
700,948	3755,29
701,137	3970,33
701,326	3865,88
701,514	3896,6
701,703	3802,4
701,892	3718,43
702,08	3540,26
702,269	3849,5
702,457	3542,3
702,646	3933,47
702,834	3691,81
703,023	3734,81
703,212	3601,69
703,4	3697,95
703,589	3665,18
703,777	3999
703,965	3800,35
704,154	3923,23
704,342	3876,12
704,531	3933,47
704,719	3677,47
704,907	3886,36
705,096	3753,24
705,284	3898,65
705,472	3859,74
705,661	4070,68
705,849	3947,8
706,037	3822,88
706,226	3691,81
706,414	3749,15
706,602	3745,05
706,79	3849,5
706,979	3644,7
707,167	3749,15
707,355	3781,92
707,543	3786,01
707,731	3753,24
707,919	3880,22
708,107	3507,49
708,296	3695,9
708,484	3532,06
708,672	3597,6
708,86	3521,82
709,048	3640,61
709,236	3579,17
709,424	3720,48
709,612	3493,15
709,8	3659,04
709,988	3519,78
710,176	3636,51
710,364	3431,71
710,551	3718,43
710,739	3568,93
710,927	3589,41
711,115	3595,55
711,303	3523,87
711,491	3319,07
711,679	3317,03
711,866	3454,24
712,054	3661,09
712,242	3421,47
712,43	3521,82
712,617	3437,86
712,805	3536,16
712,993	3306,79
713,181	3382,56
713,368	3280,16
713,556	3568,93
713,744	3235,11
713,931	3329,31
714,119	3269,92
714,306	3405,09
714,494	3177,76
714,682	3169,57
714,869	3134,76
715,057	3327,27
715,244	3192,1
715,432	3429,66
715,619	3081,51
715,807	3286,31
715,994	3202,34
716,182	3122,47
716,369	2985,26
716,556	2956,58
716,744	2882,86
716,931	2913,58
717,119	2946,34
717,306	2866,47
717,493	2630,96
717,681	2704,68
717,868	2475,31
718,055	2585,9
718,242	2307,38
718,43	2364,72
718,617	2213,17
718,804	2372,91
718,991	2288,95
719,179	2350,39
719,366	2231,6
719,553	2334
719,74	2225,46
719,927	2196,79
720,114	2377,01
720,301	2503,98
720,488	2258,23
720,676	2530,61
720,863	2436,4
721,05	2639,15
721,237	2643,24
721,424	2692,4
721,611	2678,06
721,798	2639,15
721,985	2624,81
722,172	2721,07
722,358	2567,47
722,545	2684,2
722,732	2352,43
722,919	2727,21
723,106	2393,39
723,293	2475,31
723,48	2200,88
723,667	2327,86
723,853	2293,04
724,04	2368,82
724,227	2262,32
724,414	2299,19
724,6	2235,7
724,787	2276,66
724,974	2243,89
725,161	2463,02
725,347	2475,31
725,534	2352,43
725,72	2229,56
725,907	2405,68
726,094	2219,32
726,28	2303,28
726,467	2217,27
726,653	2483,5
726,84	2098,49
727,027	2475,31
727,213	2159,92
727,4	2293,04
727,586	2098,49
727,773	2286,9
727,959	2176,31
728,145	2192,69
728,332	2067,77
728,518	2061,62
728,705	2090,29
728,891	2258,23
729,077	2219,32
729,264	2139,44
729,45	2125,11
729,636	2415,92
729,823	2030,9
730,009	2274,61
730,195	2110,77
730,382	2327,86
730,568	2178,36
730,754	2311,47
730,94	2127,16
731,126	2352,43
731,313	2215,22
731,499	2366,77
731,685	2235,7
731,871	2288,95
732,057	2288,95
732,243	2356,53
732,429	2202,93
732,615	2110,77
732,801	2139,44
732,987	2245,94
733,173	2274,61
733,359	2499,89
733,545	2102,58
733,731	2458,93
733,917	2219,32
734,103	2434,35
734,289	2254,13
734,475	2331,95
734,661	2161,97
734,847	2360,63
735,033	2192,69
735,219	2229,56
735,404	2221,36
735,59	2350,39
735,776	2145,59
735,962	2362,67
736,148	2090,29
736,333	2123,06
736,519	2090,29
736,705	2346,29
736,89	2016,57
737,076	2270,51
737,262	2080,05
737,447	2135,35
737,633	2028,85
737,819	2174,26
738,004	2022,71
738,19	2123,06
738,375	1809,72
738,561	2002,23
738,747	2000,18
738,932	2088,25
739,118	2000,18
739,303	2000,18
739,489	1946,94
739,674	1963,32
739,859	1877,3
740,045	1883,45
740,23	1977,66
740,416	2016,57
740,601	1844,54
740,786	1953,08
740,972	1869,11
741,157	1936,7
741,342	1774,91
741,528	1891,64
741,713	1692,99
741,898	1961,27
742,084	1752,38
742,269	2000,18
742,454	1901,88
742,639	2061,62
742,824	1967,42
743,01	2073,91
743,195	1891,64
743,38	1989,94
743,565	1846,59
743,75	2071,86
743,935	1793,34
744,12	1934,65
744,305	1846,59
744,49	1912,12
744,675	1735,99
744,86	1768,76
745,045	1838,39
745,23	1889,59
745,415	1762,62
745,6	1910,07
745,785	1664,32
745,97	1922,36
746,155	1787,19
746,34	1852,73
746,525	1754,43
746,71	1826,11
746,895	1766,71
747,079	1826,11
747,264	1682,75
747,449	1869,11
747,634	1623,36
747,819	1891,64
748,003	1645,88
748,188	1803,58
748,373	1586,49
748,557	1785,15
748,742	1658,17
748,927	1844,54
749,111	1658,17
749,296	1664,32
749,481	1598,78
749,665	1625,4
749,85	1588,54
750,034	1627,45
750,219	1658,17
750,404	1525,05
750,588	1541,44
750,773	1746,23
750,957	1596,73
751,141	1584,45
751,326	1412,42
751,51	1555,77
751,695	1523,01
751,879	1623,36
752,064	1477,95
752,248	1525,05
752,432	1441,09
752,617	1555,77
752,801	1492,29
752,985	1635,64
753,17	1467,71
753,354	1516,86
753,538	1492,29
753,722	1678,65
753,907	1391,94
754,091	1592,64
754,275	1260,87
754,459	1551,68
754,643	1295,68
754,828	1506,62
755,012	1387,84
755,196	1516,86
755,38	1400,13
755,564	1430,85
755,748	1271,11
755,932	1506,62
756,116	1414,46
756,3	1393,98
756,484	1279,3
756,668	1443,14
756,852	1269,06
757,036	1359,17
757,22	1271,11
757,404	1418,56
757,588	1236,29
757,772	1324,35
757,956	1252,67
758,14	1279,3
758,323	1217,86
758,507	1301,83
758,691	1047,88
758,875	943,43
759,059	619,85
759,242	511,31
759,426	318,8
759,61	165,2
759,794	114
759,977	79,19
760,161	122,2
760,345	75,09
760,528	66,9
760,712	25,94
760,895	-15,02
761,079	-0,68
761,263	97,62
761,446	103,76
761,63	179,54
761,813	99,67
761,997	167,25
762,18	177,49
762,364	50,52
762,547	138,58
762,731	122,2
762,914	146,77
763,098	91,48
763,281	107,86
763,464	148,82
763,648	148,82
763,831	171,35
764,015	189,78
764,198	189,78
764,381	200,02
764,564	226,64
764,748	255,31
764,931	347,47
765,114	392,53
765,297	367,95
765,481	429,39
765,664	382,29
765,847	529,74
766,03	574,8
766,213	666,96
766,397	656,72
766,58	765,26
766,763	824,65
766,946	980,29
767,129	912,71
767,312	1078,6
767,495	1015,11
767,678	1113,41
767,861	1154,37
768,044	1213,76
768,227	1201,48
768,41	1451,33
768,593	1279,3
768,776	1402,18
768,959	1246,53
769,142	1482,05
769,324	1250,63
769,507	1461,57
769,69	1449,28
769,873	1467,71
770,056	1348,93
770,239	1445,18
770,421	1529,15
770,604	1588,54
770,787	1434,94
770,97	1490,24
771,152	1426,75
771,335	1443,14
771,518	1310,02
771,7	1588,54
771,883	1443,14
772,066	1697,08
772,248	1436,99
772,431	1551,68
772,613	1461,57
772,796	1649,98
772,978	1711,42
773,161	1654,08
773,343	1545,53
773,526	1744,19
773,708	1547,58
773,891	1463,62
774,073	1428,8
774,256	1582,4
774,438	1586,49
774,621	1557,82
774,803	1596,73
774,985	1727,8
775,168	1541,44
775,35	1598,78
775,532	1570,11
775,715	1809,72
775,897	1598,78
776,079	1719,61
776,261	1443,14
776,444	1510,72
776,626	1488,19
776,808	1574,21
776,99	1533,25
777,173	1580,35
777,355	1598,78
777,537	1596,73
777,719	1430,85
777,901	1553,73
778,083	1551,68
778,265	1649,98
778,447	1350,98
778,629	1547,58
778,811	1420,61
778,993	1467,71
779,175	1418,56
779,357	1463,62
779,539	1465,66
779,721	1527,1
779,903	1422,66
780,085	1586,49
780,267	1369,41
780,449	1461,57
780,631	1326,4
780,812	1492,29
780,994	1252,67
781,176	1484,09
781,358	1332,55
781,54	1320,26
781,721	1279,3
781,903	1322,31
782,085	1262,91
782,267	1318,21
782,448	1250,63
782,63	1269,06
782,812	1273,15
782,993	1353,02
783,175	1078,6
783,357	1226,05
783,538	1174,85
783,72	1342,78
783,901	1049,93
784,083	1213,76
784,264	1140,04
784,446	1271,11
784,627	1129,8
784,809	1207,62
784,99	1123,65
785,172	1230,15
785,353	1049,93
785,535	1127,75
785,716	1033,54
785,897	1146,18
786,079	1097,03
786,26	1144,13
786,441	982,34
786,623	1131,84
786,804	1064,26
786,985	1017,16
787,167	982,34
787,348	955,72
787,529	847,18
787,71	1017,16
787,891	965,96
788,073	1076,55
788,254	884,04
788,435	925
788,616	888,14
788,797	908,62
788,978	853,32
789,159	867,66
789,34	875,85
789,522	951,62
789,703	779,59
789,884	908,62
790,065	845,13
790,246	843,08
790,427	849,22
790,607	841,03
790,788	826,7
790,969	853,32
791,15	763,21
791,331	857,42
791,512	757,07
791,693	771,4
791,874	695,63
792,054	697,67
792,235	683,34
792,416	677,2
792,597	699,72
792,778	787,79
792,958	726,35
793,139	783,69
793,32	675,15
793,5	814,41
793,681	722,25
793,862	687,43
794,042	632,14
794,223	709,96
794,404	587,08
794,584	740,68
794,765	560,46
794,945	744,78
795,126	582,99
795,306	681,29
795,487	576,84
795,667	660,81
795,848	570,7
796,028	648,52
796,209	615,76
796,389	621,9
796,57	607,56
796,75	652,62
796,93	640,33
797,111	578,89
797,291	613,71
797,471	664,91
797,652	537,93
797,832	673,1
798,012	566,6
798,192	593,23
798,373	537,93
798,553	656,72
798,733	564,56
798,913	564,56
799,093	509,26
799,274	552,27
799,454	503,12
799,634	525,65
799,814	494,93
799,994	474,45
800,174	482,64
800,354	566,6
800,534	527,69
800,714	605,52
800,894	419,15
801,074	599,37
801,254	443,73
801,434	509,26
801,614	517,45
801,794	496,97
801,974	419,15
802,154	501,07
802,334	486,73
802,514	443,73
802,693	458,06
802,873	480,59
803,053	496,97
803,233	439,63
803,413	431,44
803,592	419,15
803,772	400,72
803,952	417,1
804,131	464,21
804,311	531,79
804,491	466,25
804,67	419,15
804,85	425,29
805,03	499,02
805,209	488,78
805,389	423,25
805,568	435,53
805,748	517,45
805,928	443,73
806,107	386,38
806,287	419,15
806,466	435,53
806,646	386,38
806,825	359,76
807,004	394,58
807,184	423,25
807,363	419,15
807,543	378,19
807,722	329,04
807,901	386,38
808,081	429,39
808,26	394,58
808,439	419,15
808,619	451,92
808,798	347,47
808,977	415,06
809,156	370
809,336	431,44
809,515	308,56
809,694	361,81
809,873	367,95
810,052	386,38
810,231	361,81
810,411	410,96
810,59	370
810,769	318,8
810,948	318,8
811,127	349,52
811,306	429,39
811,485	357,71
811,664	300,37
811,843	378,19
812,022	300,37
812,201	312,66
812,38	343,38
812,559	302,42
812,737	171,35
812,916	384,34
813,095	333,14
813,274	269,65
813,453	214,35
813,632	255,31
813,811	265,55
813,989	234,83
814,168	228,69
814,347	279,89
814,526	214,35
814,704	306,51
814,883	251,22
815,062	302,42
815,24	193,87
815,419	275,79
815,598	212,31
815,776	202,07
815,955	251,22
816,133	202,07
816,312	179,54
816,49	212,31
816,669	187,73
816,847	214,35
817,026	163,15
817,204	230,74
817,383	197,97
817,561	224,59
817,74	222,55
817,918	228,69
818,097	222,55
818,275	187,73
818,453	163,15
818,632	257,36
818,81	99,67
818,988	144,72
819,167	148,82
819,345	161,11
819,523	177,49
819,701	165,2
819,879	193,87
820,058	173,39
820,236	288,08
820,414	187,73
820,592	157,01
820,77	218,45
820,948	210,26
821,127	218,45
821,305	177,49
821,483	222,55
821,661	179,54
821,839	193,87
822,017	132,44
822,195	181,59
822,373	187,73
822,551	114
822,729	185,68
822,907	146,77
823,085	97,62
823,262	148,82
823,44	134,48
823,618	197,97
823,796	140,63
823,974	214,35
824,152	163,15
824,329	165,2
824,507	187,73
824,685	171,35
824,863	183,63
825,04	202,07
825,218	142,68
825,396	132,44
825,574	183,63
825,751	138,58
825,929	181,59
826,107	161,11
826,284	185,68
826,462	124,24
826,639	154,96
826,817	206,16
826,994	157,01
827,172	136,53
827,349	165,2
827,527	148,82
827,704	124,24
827,882	132,44
828,059	136,53
828,237	136,53
828,414	163,15
828,591	187,73
828,769	87,38
828,946	148,82
829,124	122,2
829,301	177,49
829,478	179,54
829,655	157,01
829,833	181,59
830,01	144,72
830,187	210,26
830,364	130,39
830,542	138,58
830,719	161,11
830,896	220,5
831,073	120,15
831,25	132,44
831,427	175,44
831,604	87,38
831,782	165,2
831,959	222,55
832,136	79,19
832,313	171,35
832,49	87,38
832,667	181,59
832,844	83,28
833,021	58,71
833,198	157,01
833,374	73,04
833,551	75,09
833,728	64,85
833,905	128,34
834,082	83,28
834,259	97,62
834,436	87,38
834,612	87,38
834,789	87,38
834,966	171,35
835,143	58,71
835,319	150,87
835,496	111,96
835,673	105,81
835,85	99,67
836,026	91,48
836,203	159,06
836,38	124,24
836,556	46,42
836,733	132,44
836,909	116,05
837,086	173,39
837,262	148,82
837,439	105,81
837,616	107,86
837,792	111,96
837,968	114
838,145	99,67
838,321	66,9
838,498	111,96
838,674	116,05
838,851	99,67
839,027	30,04
839,203	93,52
839,38	34,13
839,556	58,71
839,732	81,24
839,909	105,81
840,085	124,24
840,261	66,9
840,437	148,82
840,614	89,43
840,79	103,76
840,966	32,08
841,142	122,2
841,318	81,24
841,494	136,53
841,671	144,72
841,847	154,96
842,023	50,52
842,199	132,44
842,375	34,13
842,551	66,9
842,727	107,86
842,903	62,8
843,079	34,13
843,255	58,71
843,431	64,85
843,607	58,71
843,783	81,24
843,959	66,9
844,134	50,52
844,31	71
844,486	107,86
844,662	154,96
844,838	71
845,013	111,96
845,189	83,28
845,365	42,32
845,541	17,75
845,716	32,08
845,892	105,81
846,068	114
846,244	81,24
846,419	64,85
846,595	58,71
846,77	132,44
846,946	71
847,122	23,89
847,297	120,15
847,473	107,86
847,648	73,04
847,824	66,9
847,999	23,89
848,175	105,81
848,35	91,48
848,526	107,86
848,701	-15,02
848,876	58,71
849,052	9,56
849,227	58,71
849,403	-8,87
849,578	17,75
849,753	42,32
849,929	64,85
850,104	120,15
850,279	107,86
850,454	99,67
850,63	-10,92
850,805	46,42
850,98	122,2
851,155	87,38
851,33	114
851,505	40,28
851,681	87,38
851,856	48,47
852,031	50,52
852,206	75,09
852,381	5,46
852,556	1,37
852,731	30,04
852,906	27,99
853,081	56,66
853,256	48,47
853,431	83,28
853,606	32,08
853,781	25,94
853,956	99,67
854,131	99,67
854,305	-6,83
854,48	1,37
854,655	30,04
854,83	38,23
855,005	15,7
855,18	25,94
855,354	17,75
855,529	-2,73
855,704	15,7
855,879	75,09
856,053	95,57
856,228	46,42
856,403	48,47
856,577	66,9
856,752	-15,02
856,926	91,48
857,101	116,05
857,276	-0,68
857,45	105,81
857,625	54,61
857,799	62,8
857,974	32,08
858,148	50,52
858,323	9,56
858,497	-29,35
858,672	81,24
858,846	64,85
859,02	-49,83
859,195	64,85
859,369	64,85
859,543	54,61
859,718	58,71
859,892	-6,83
860,066	13,65
860,241	75,09
860,415	-6,83
860,589	58,71
860,763	71
860,938	15,7
861,112	128,34
861,286	40,28
861,46	42,32
861,634	-39,59
861,808	5,46
861,982	15,7
862,157	-4,78
862,331	-0,68
862,505	83,28
862,679	66,9
862,853	109,91
863,027	-15,02
863,201	75,09
863,375	34,13
863,549	44,37
863,722	73,04
863,896	30,04
864,07	25,94
864,244	9,56
864,418	91,48
864,592	15,7
864,766	-17,07
864,939	23,89
865,113	9,56
865,287	1,37
865,461	19,8
865,634	50,52
865,808	-0,68
865,982	15,7
866,156	5,46
866,329	-31,4
866,503	50,52
866,676	71
866,85	1,37
867,024	1,37
867,197	42,32
867,371	21,85
867,544	62,8
867,718	1,37
867,891	9,56
868,065	68,95
868,238	25,94
868,412	30,04
868,585	9,56
868,759	44,37
868,932	56,66
869,105	11,61
869,279	-19,11
869,452	15,7
869,625	21,85
869,799	9,56
869,972	42,32
870,145	17,75
870,319	25,94
870,492	62,8
870,665	25,94
870,838	23,89
871,011	1,37
871,185	-2,73
871,358	42,32
871,531	-19,11
871,704	62,8
871,877	19,8
872,05	50,52
872,223	66,9
872,396	42,32
872,569	-6,83
872,742	-47,79
872,915	46,42
873,088	21,85
873,261	-39,59
873,434	9,56
873,607	-6,83
873,78	9,56
873,953	23,89
874,126	-2,73
874,299	48,47
874,471	15,7
874,644	34,13
874,817	1,37
874,99	19,8
875,163	5,46
875,335	114
875,508	101,72
875,681	-21,16
875,853	46,42
876,026	52,56
876,199	-23,21
876,371	62,8
876,544	25,94
876,717	48,47
876,889	-55,98
877,062	-17,07
877,234	-10,92
877,407	46,42
877,579	-4,78
877,752	7,51
877,924	-15,02
878,097	32,08
878,269	15,7
878,442	25,94
878,614	-27,31
878,786	58,71
878,959	17,75
879,131	11,61
879,303	23,89
879,476	54,61
879,648	25,94
879,82	-8,87
879,993	48,47
880,165	5,46
880,337	30,04
880,509	81,24
880,681	-43,69
880,854	7,51
881,026	-15,02
881,198	-6,83
881,37	25,94
881,542	40,28
881,714	-19,11
881,886	56,66
882,058	48,47
882,23	15,7
882,402	-49,83
882,574	99,67
882,746	5,46
882,918	17,75
883,09	-15,02
883,262	1,37
883,434	89,43
883,606	-6,83
883,778	-21,16
883,95	-47,79
884,122	25,94
884,293	7,51
884,465	79,19
884,637	21,85
884,809	-10,92
884,98	38,23
885,152	21,85
885,324	75,09
885,496	-21,16
885,667	54,61
885,839	75,09
886,011	-15,02
886,182	97,62
886,354	44,37
886,525	62,8
886,697	13,65
886,869	25,94
887,04	48,47
887,212	-25,26
887,383	-25,26
887,555	77,14
887,726	13,65
887,897	-6,83
888,069	95,57
888,24	17,75
888,412	32,08
888,583	7,51
888,754	-2,73
888,926	-66,22
889,097	13,65
889,268	13,65
889,44	50,52
889,611	5,46
889,782	38,23
889,953	-0,68
890,125	25,94
890,296	9,56
890,467	71
890,638	40,28
890,809	64,85
890,98	32,08
891,151	30,04
891,323	48,47
891,494	9,56
891,665	23,89
891,836	13,65
892,007	9,56
892,178	5,46
892,349	-17,07
892,52	32,08
892,691	-19,11
892,862	17,75
893,032	-41,64
893,203	1,37
893,374	25,94
893,545	25,94
893,716	42,32
893,887	-58,03
894,057	32,08
894,228	-0,68
894,399	-10,92
894,57	62,8
894,74	1,37
894,911	-27,31
895,082	42,32
895,253	17,75
895,423	17,75
895,594	23,89
895,764	-27,31
895,935	-21,16
896,106	1,37
896,276	46,42
896,447	25,94
896,617	42,32
896,788	-4,78
896,958	-17,07
897,129	-2,73
897,299	-80,55
897,47	-39,59
897,64	48,47
897,81	75,09
897,981	-0,68
898,151	-27,31
898,322	-6,83
898,492	-27,31
898,662	9,56
898,832	-0,68
899,003	-47,79
899,173	-47,79
899,343	-2,73
899,513	17,75
