Data from USB4F104151__0__13-21-03-950.txt Node

Date: Fri Mar 08 13:21:03 EST 2024
User: lauri
Spectrometer: USB4F10415
Trigger mode: 4
Integration Time (sec): 5,000000E-4
Scans to average: 1
Electric dark correction enabled: true
Nonlinearity correction enabled: false
Boxcar width: 0
XAxis mode: Wavelengths
Number of Pixels in Spectrum: 3648
>>>>>Begin Spectral Data<<<<<
178,204	53,42
178,424	53,42
178,644	53,42
178,864	-44,88
179,084	26,79
179,304	77,99
179,524	-77,65
179,744	-3,93
179,964	32,94
180,184	-34,64
180,404	-51,03
180,624	-14,17
180,844	-3,93
181,064	24,75
181,283	0,17
181,503	20,65
181,723	28,84
181,943	-3,93
182,163	45,23
182,383	4,27
182,602	43,18
182,822	12,46
183,042	34,99
183,262	16,55
183,482	28,84
183,701	14,51
183,921	0,17
184,141	37,03
184,361	57,51
184,58	-12,12
184,8	106,67
185,02	28,84
185,239	18,6
185,459	4,27
185,679	32,94
185,898	65,71
186,118	45,23
186,338	-36,69
186,557	-16,21
186,777	82,09
186,997	116,9
187,216	8,36
187,436	4,27
187,655	39,08
187,875	69,8
188,095	12,46
188,314	-53,08
188,534	14,51
188,753	34,99
188,973	-3,93
189,192	-36,69
189,412	12,46
189,631	53,42
189,851	26,79
190,07	24,75
190,29	18,6
190,509	-20,31
190,729	53,42
190,948	43,18
191,168	45,23
191,387	8,36
191,607	4,27
191,826	-53,08
192,045	-34,64
192,265	10,41
192,484	-28,5
192,704	57,51
192,923	32,94
193,142	28,84
193,362	-5,97
193,581	63,66
193,8	2,22
194,02	-18,26
194,239	28,84
194,458	45,23
194,678	-32,6
194,897	4,27
195,116	-24,4
195,335	4,27
195,555	49,32
195,774	-14,17
195,993	69,8
196,212	69,8
196,432	-8,02
196,651	32,94
196,87	26,79
197,089	4,27
197,308	28,84
197,528	57,51
197,747	32,94
197,966	65,71
198,185	-24,4
198,404	12,46
198,623	37,03
198,842	24,75
199,062	100,52
199,281	-5,97
199,5	-3,93
199,719	-46,93
199,938	28,84
200,157	41,13
200,376	-38,74
200,595	69,8
200,814	8,36
201,033	-32,6
201,252	73,9
201,471	45,23
201,69	34,99
201,909	-24,4
202,128	-38,74
202,347	53,42
202,566	-32,6
202,785	20,65
203,004	20,65
203,223	0,17
203,442	67,75
203,661	-3,93
203,879	26,79
204,098	41,13
204,317	-61,27
204,536	4,27
204,755	-10,07
204,974	69,8
205,193	10,41
205,411	26,79
205,63	-16,21
205,849	61,61
206,068	-36,69
206,287	61,61
206,505	34,99
206,724	18,6
206,943	49,32
207,162	59,56
207,381	-59,22
207,599	73,9
207,818	6,31
208,037	53,42
208,255	43,18
208,474	12,46
208,693	-46,93
208,911	16,55
209,13	-16,21
209,349	-36,69
209,567	-14,17
209,786	18,6
210,005	26,79
210,223	96,43
210,442	10,41
210,661	43,18
210,879	-44,88
211,098	-3,93
211,316	41,13
211,535	43,18
211,753	49,32
211,972	45,23
212,191	53,42
212,409	-24,4
212,628	53,42
212,846	4,27
213,065	77,99
213,283	-3,93
213,502	8,36
213,72	32,94
213,938	-1,88
214,157	45,23
214,375	-40,79
214,594	77,99
214,812	16,55
215,031	-20,31
215,249	8,36
215,467	-22,36
215,686	-3,93
215,904	63,66
216,122	61,61
216,341	20,65
216,559	84,14
216,778	88,23
216,996	14,51
217,214	24,75
217,432	32,94
217,651	10,41
217,869	26,79
218,087	47,27
218,306	28,84
218,524	53,42
218,742	61,61
218,96	16,55
219,179	37,03
219,397	18,6
219,615	59,56
219,833	41,13
220,051	-28,5
220,27	16,55
220,488	-22,36
220,706	61,61
220,924	28,84
221,142	-14,17
221,36	18,6
221,578	-36,69
221,796	73,9
222,015	-3,93
222,233	-32,6
222,451	57,51
222,669	-46,93
222,887	4,27
223,105	-34,64
223,323	-10,07
223,541	-85,84
223,759	0,17
223,977	8,36
224,195	43,18
224,413	-12,12
224,631	32,94
224,849	0,17
225,067	26,79
225,285	-53,08
225,503	61,61
225,721	-3,93
225,939	123,05
226,157	-3,93
226,375	8,36
226,592	0,17
226,81	10,41
227,028	-36,69
227,246	20,65
227,464	34,99
227,682	22,7
227,9	-38,74
228,117	57,51
228,335	-77,65
228,553	20,65
228,771	12,46
228,989	49,32
229,206	84,14
229,424	-73,56
229,642	0,17
229,86	-12,12
230,077	-20,31
230,295	-20,31
230,513	28,84
230,731	51,37
230,948	12,46
231,166	90,28
231,384	22,7
231,601	2,22
231,819	18,6
232,037	26,79
232,254	61,61
232,472	-77,65
232,689	37,03
232,907	47,27
233,125	8,36
233,342	-8,02
233,56	20,65
233,777	45,23
233,995	18,6
234,213	16,55
234,43	-5,97
234,648	65,71
234,865	82,09
235,083	-28,5
235,3	-5,97
235,518	73,9
235,735	28,84
235,953	34,99
236,17	59,56
236,388	12,46
236,605	61,61
236,822	30,89
237,04	45,23
237,257	55,47
237,475	45,23
237,692	-12,12
237,909	-48,98
238,127	-8,02
238,344	4,27
238,562	-26,45
238,779	-44,88
238,996	26,79
239,214	-8,02
239,431	-44,88
239,648	4,27
239,865	-36,69
240,083	55,47
240,3	-12,12
240,517	-22,36
240,735	-28,5
240,952	-8,02
241,169	53,42
241,386	12,46
241,603	8,36
241,821	16,55
242,038	-32,6
242,255	41,13
242,472	20,65
242,689	69,8
242,907	-8,02
243,124	22,7
243,341	-32,6
243,558	77,99
243,775	18,6
243,992	69,8
244,209	14,51
244,426	-28,5
244,643	10,41
244,86	37,03
245,078	24,75
245,295	37,03
245,512	32,94
245,729	8,36
245,946	-20,31
246,163	-3,93
246,38	73,9
246,597	73,9
246,814	32,94
247,031	-42,84
247,248	4,27
247,464	16,55
247,681	20,65
247,898	2,22
248,115	57,51
248,332	24,75
248,549	92,33
248,766	71,85
248,983	24,75
249,2	28,84
249,417	61,61
249,633	43,18
249,85	4,27
250,067	22,7
250,284	71,85
250,501	28,84
250,717	-22,36
250,934	32,94
251,151	-28,5
251,368	14,51
251,585	51,37
251,801	20,65
252,018	53,42
252,235	16,55
252,451	0,17
252,668	-12,12
252,885	77,99
253,102	12,46
253,318	61,61
253,535	-44,88
253,752	4,27
253,968	-63,32
254,185	45,23
254,401	59,56
254,618	14,51
254,835	16,55
255,051	22,7
255,268	28,84
255,484	43,18
255,701	-3,93
255,917	32,94
256,134	45,23
256,351	-30,55
256,567	-16,21
256,784	16,55
257	100,52
257,217	-16,21
257,433	-5,97
257,65	28,84
257,866	20,65
258,082	59,56
258,299	51,37
258,515	61,61
258,732	-3,93
258,948	28,84
259,165	73,9
259,381	22,7
259,597	4,27
259,814	26,79
260,03	-46,93
260,246	20,65
260,463	-20,31
260,679	28,84
260,895	-16,21
261,112	-26,45
261,328	-3,93
261,544	-10,07
261,761	67,75
261,977	24,75
262,193	-22,36
262,409	-22,36
262,626	-30,55
262,842	94,38
263,058	-55,12
263,274	37,03
263,49	4,27
263,707	-20,31
263,923	84,14
264,139	24,75
264,355	10,41
264,571	51,37
264,787	49,32
265,004	-65,36
265,22	2,22
265,436	20,65
265,652	12,46
265,868	-28,5
266,084	-5,97
266,3	4,27
266,516	-65,36
266,732	51,37
266,948	16,55
267,164	30,89
267,38	67,75
267,596	22,7
267,812	-14,17
268,028	22,7
268,244	-32,6
268,46	24,75
268,676	30,89
268,892	86,19
269,108	61,61
269,324	4,27
269,54	8,36
269,756	14,51
269,972	-44,88
270,188	41,13
270,403	-36,69
270,619	18,6
270,835	-28,5
271,051	-79,7
271,267	-12,12
271,483	-5,97
271,698	61,61
271,914	16,55
272,13	-12,12
272,346	20,65
272,562	34,99
272,777	24,75
272,993	-26,45
273,209	59,56
273,425	-36,69
273,64	18,6
273,856	98,47
274,072	2,22
274,287	-10,07
274,503	-14,17
274,719	106,67
274,934	10,41
275,15	-44,88
275,366	4,27
275,581	-28,5
275,797	61,61
276,012	2,22
276,228	-12,12
276,444	24,75
276,659	34,99
276,875	-28,5
277,09	-32,6
277,306	41,13
277,521	45,23
277,737	39,08
277,952	0,17
278,168	61,61
278,383	102,57
278,599	-12,12
278,814	59,56
279,03	37,03
279,245	37,03
279,461	84,14
279,676	-38,74
279,892	14,51
280,107	24,75
280,322	-3,93
280,538	8,36
280,753	77,99
280,969	26,79
281,184	14,51
281,399	14,51
281,615	86,19
281,83	-1,88
282,045	-46,93
282,26	-38,74
282,476	-53,08
282,691	26,79
282,906	61,61
283,122	30,89
283,337	-44,88
283,552	-3,93
283,767	-16,21
283,983	4,27
284,198	26,79
284,413	28,84
284,628	-28,5
284,843	75,95
285,058	-5,97
285,274	8,36
285,489	-22,36
285,704	18,6
285,919	37,03
286,134	0,17
286,349	4,27
286,564	57,51
286,779	2,22
286,995	45,23
287,21	12,46
287,425	32,94
287,64	61,61
287,855	61,61
288,07	37,03
288,285	8,36
288,5	100,52
288,715	-5,97
288,93	32,94
289,145	0,17
289,36	28,84
289,575	20,65
289,79	16,55
290,004	-3,93
290,219	10,41
290,434	-3,93
290,649	32,94
290,864	53,42
291,079	51,37
291,294	12,46
291,509	45,23
291,724	12,46
291,938	49,32
292,153	102,57
292,368	28,84
292,583	69,8
292,798	-16,21
293,012	-32,6
293,227	18,6
293,442	45,23
293,657	55,47
293,871	4,27
294,086	16,55
294,301	53,42
294,516	8,36
294,73	26,79
294,945	24,75
295,16	-8,02
295,374	73,9
295,589	16,55
295,804	73,9
296,018	-12,12
296,233	4,27
296,447	-16,21
296,662	10,41
296,877	10,41
297,091	16,55
297,306	43,18
297,52	-16,21
297,735	-3,93
297,949	-48,98
298,164	-14,17
298,378	10,41
298,593	41,13
298,807	4,27
299,022	67,75
299,236	0,17
299,451	53,42
299,665	37,03
299,88	-8,02
300,094	69,8
300,309	12,46
300,523	28,84
300,737	20,65
300,952	47,27
301,166	-34,64
301,381	47,27
301,595	86,19
301,809	-20,31
302,024	51,37
302,238	84,14
302,452	-1,88
302,667	37,03
302,881	90,28
303,095	28,84
303,309	12,46
303,524	-3,93
303,738	61,61
303,952	4,27
304,166	94,38
304,381	-30,55
304,595	-22,36
304,809	34,99
305,023	75,95
305,237	-28,5
305,452	51,37
305,666	-96,08
305,88	-30,55
306,094	37,03
306,308	20,65
306,522	0,17
306,736	47,27
306,95	0,17
307,164	26,79
307,379	14,51
307,593	-24,4
307,807	6,31
308,021	73,9
308,235	-53,08
308,449	14,51
308,663	20,65
308,877	-36,69
309,091	-30,55
309,305	63,66
309,519	53,42
309,733	61,61
309,947	45,23
310,161	-44,88
310,374	32,94
310,588	10,41
310,802	4,27
311,016	55,47
311,23	94,38
311,444	28,84
311,658	-96,08
311,872	34,99
312,085	-8,02
312,299	26,79
312,513	37,03
312,727	37,03
312,941	45,23
313,154	45,23
313,368	10,41
313,582	8,36
313,796	22,7
314,009	65,71
314,223	26,79
314,437	98,47
314,651	45,23
314,864	67,75
315,078	-34,64
315,292	18,6
315,505	-5,97
315,719	55,47
315,933	-20,31
316,146	41,13
316,36	8,36
316,573	-10,07
316,787	2,22
317,001	32,94
317,214	20,65
317,428	57,51
317,641	28,84
317,855	14,51
318,068	22,7
318,282	28,84
318,495	77,99
318,709	4,27
318,922	4,27
319,136	4,27
319,349	26,79
319,563	26,79
319,776	-30,55
319,99	67,75
320,203	0,17
320,417	41,13
320,63	-12,12
320,843	86,19
321,057	22,7
321,27	18,6
321,483	-55,12
321,697	43,18
321,91	-30,55
322,124	12,46
322,337	-16,21
322,55	61,61
322,763	65,71
322,977	82,09
323,19	57,51
323,403	86,19
323,617	24,75
323,83	24,75
324,043	39,08
324,256	-1,88
324,469	45,23
324,683	102,57
324,896	73,9
325,109	45,23
325,322	71,85
325,535	98,47
325,748	18,6
325,962	45,23
326,175	20,65
326,388	102,57
326,601	12,46
326,814	45,23
327,027	80,04
327,24	112,81
327,453	37,03
327,666	77,99
327,879	16,55
328,092	16,55
328,305	100,52
328,518	131,24
328,731	53,42
328,944	84,14
329,157	51,37
329,37	127,14
329,583	80,04
329,796	75,95
330,009	86,19
330,222	65,71
330,435	149,67
330,648	75,95
330,861	100,52
331,073	110,76
331,286	51,37
331,499	86,19
331,712	-20,31
331,925	77,99
332,138	39,08
332,35	75,95
332,563	59,56
332,776	37,03
332,989	37,03
333,202	37,03
333,414	67,75
333,627	100,52
333,84	12,46
334,053	116,9
334,265	102,57
334,478	77,99
334,691	121
334,903	127,14
335,116	94,38
335,329	84,14
335,541	84,14
335,754	125,1
335,966	8,36
336,179	84,14
336,392	106,67
336,604	94,38
336,817	104,62
337,029	123,05
337,242	110,76
337,454	159,91
337,667	75,95
337,88	108,71
338,092	215,21
338,305	168,1
338,517	143,53
338,729	102,57
338,942	213,16
339,154	102,57
339,367	174,25
339,579	102,57
339,792	110,76
340,004	139,43
340,217	127,14
340,429	137,38
340,641	69,8
340,854	196,78
341,066	75,95
341,278	118,95
341,491	174,25
341,703	131,24
341,915	192,68
342,128	215,21
342,34	114,86
342,552	133,29
342,764	114,86
342,977	104,62
343,189	96,43
343,401	92,33
343,613	143,53
343,826	159,91
344,038	133,29
344,25	100,52
344,462	143,53
344,674	112,81
344,886	149,67
345,099	114,86
345,311	159,91
345,523	114,86
345,735	176,3
345,947	129,19
346,159	125,1
346,371	235,69
346,583	141,48
346,795	110,76
347,007	125,1
347,219	149,67
347,431	90,28
347,643	202,92
347,855	180,39
348,067	116,9
348,279	241,83
348,491	164,01
348,703	186,54
348,915	114,86
349,127	151,72
349,339	231,59
349,551	233,64
349,763	241,83
349,975	200,87
350,187	266,41
350,399	250,02
350,61	241,83
350,822	200,87
351,034	164,01
351,246	184,49
351,458	188,58
351,669	198,82
351,881	186,54
352,093	229,54
352,305	221,35
352,517	211,11
352,728	307,37
352,94	217,26
353,152	348,33
353,363	266,41
353,575	282,79
353,787	338,09
353,999	348,33
354,21	348,33
354,422	250,02
354,633	235,69
354,845	223,4
355,057	221,35
355,268	270,5
355,48	217,26
355,692	272,55
355,903	172,2
356,115	166,06
356,326	143,53
356,538	172,2
356,749	127,14
356,961	196,78
357,172	118,95
357,384	217,26
357,595	204,97
357,807	151,72
358,018	180,39
358,23	231,59
358,441	227,5
358,653	252,07
358,864	331,94
359,075	262,31
359,287	301,22
359,498	338,09
359,709	282,79
359,921	266,41
360,132	247,97
360,344	299,17
360,555	311,46
360,766	258,21
360,977	237,74
361,189	342,18
361,4	258,21
361,611	331,94
361,823	352,42
362,034	377
362,245	387,24
362,456	340,13
362,667	346,28
362,879	473,25
363,09	501,92
363,301	477,35
363,512	393,38
363,723	508,07
363,935	454,82
364,146	512,16
364,357	544,93
364,568	657,57
364,779	606,37
364,99	577,7
365,201	710,82
365,412	659,62
365,623	774,3
365,834	860,32
366,045	843,93
366,256	649,38
366,467	839,84
366,678	694,43
366,889	712,86
367,1	626,85
367,311	788,64
367,522	766,11
367,733	676
367,944	745,63
368,155	733,34
368,366	786,59
368,577	864,41
368,788	796,83
368,999	770,21
369,209	776,35
369,42	827,55
369,631	757,92
369,842	794,78
370,053	747,68
370,264	686,24
370,474	692,38
370,685	848,03
370,896	690,34
371,107	723,1
371,317	649,38
371,528	575,65
371,739	684,19
371,95	585,89
372,16	614,56
372,371	542,88
372,582	493,73
372,792	485,54
373,003	417,96
373,214	452,77
373,424	430,24
373,635	403,62
373,846	577,7
374,056	534,69
374,267	551,07
374,477	579,75
374,688	600,23
374,898	714,91
375,109	739,49
375,319	811,17
375,53	817,31
375,74	882,85
375,951	807,07
376,161	972,96
376,372	1003,68
376,582	1018,01
376,793	1110,17
377,003	1233,05
377,214	1325,21
377,424	1179,8
377,635	1280,15
377,845	1114,27
378,055	1110,17
378,266	1134,75
378,476	942,24
378,686	942,24
378,897	999,58
379,107	1048,73
379,317	968,86
379,528	1046,68
379,738	1065,11
379,948	954,52
380,158	864,41
380,369	911,52
380,579	805,02
380,789	901,28
380,999	829,6
381,21	653,47
381,42	532,64
381,63	520,35
381,84	438,44
382,05	430,24
382,261	290,98
382,471	446,63
382,681	325,8
382,891	458,92
383,101	405,67
383,311	479,4
383,521	551,07
383,731	594,08
383,941	655,52
384,151	741,54
384,361	782,49
384,571	870,56
384,781	774,3
384,991	936,09
385,201	690,34
385,411	899,23
385,621	794,78
385,831	848,03
386,041	829,6
386,251	839,84
386,461	800,93
386,671	946,33
386,881	880,8
387,091	872,61
387,301	843,93
387,511	954,52
387,72	878,75
387,93	975
388,14	981,15
388,35	1116,31
388,56	1142,94
388,769	1204,38
388,979	1241,24
389,189	1433,75
389,399	1341,59
389,609	1458,32
389,818	1429,65
390,028	1573,01
390,238	1589,39
390,447	1724,56
390,657	1474,71
390,867	1515,67
391,076	1216,66
391,286	1267,86
391,496	1034,39
391,705	958,62
391,915	739,49
392,125	745,63
392,334	518,31
392,544	420
392,753	454,82
392,963	610,47
393,172	528,55
393,382	757,92
393,591	829,6
393,801	970,91
394,01	979,1
394,22	1101,98
394,429	1241,24
394,639	1331,35
394,848	1282,2
395,058	1233,05
395,267	1083,55
395,477	981,15
395,686	899,23
395,895	811,17
396,105	731,3
396,314	815,26
396,524	815,26
396,733	1003,68
396,942	1183,9
397,152	1634,45
397,361	1697,94
397,57	2003,08
397,78	2044,04
397,989	2263,18
398,198	2541,7
398,407	2678,91
398,617	2551,94
398,826	2977,92
399,035	2691,2
399,244	2785,41
399,453	2728,07
399,663	2969,73
399,872	2887,81
400,081	3227,77
400,29	3035,26
400,499	3119,23
400,708	2949,25
400,917	3358,84
401,127	3147,9
401,336	3213,43
401,545	3186,81
401,754	3203,19
401,963	3422,33
402,172	3289,21
402,381	3225,72
402,59	3371,13
402,799	3074,17
403,008	3131,51
403,217	3008,64
403,426	3192,95
403,635	3117,18
403,844	3123,32
404,053	3022,97
404,262	3182,71
404,471	3059,84
404,68	3281,02
404,888	3008,64
405,097	3008,64
405,306	2975,87
405,515	3072,12
405,724	2996,35
405,933	3317,88
406,142	3104,89
406,35	2873,47
406,559	3195
406,768	3326,07
406,977	3147,9
407,185	3412,09
407,394	3436,66
407,603	3438,71
407,812	3393,65
408,02	3485,81
408,229	3369,08
408,438	3338,36
408,646	3407,99
408,855	3387,51
409,064	3272,82
409,272	3448,95
409,481	3326,07
409,69	3248,25
409,898	3117,18
410,107	3745,91
410,315	3444,85
410,524	3758,19
410,733	3639,41
410,941	3879,02
411,15	3727,47
411,358	4042,86
411,567	3833,97
411,775	3917,93
411,984	3829,87
412,192	3969,13
412,401	3819,63
412,609	3852,4
412,818	3803,25
413,026	4010,09
413,234	3739,76
413,443	3876,98
413,651	3813,49
413,86	3760,24
414,068	3836,02
414,276	3944,56
414,485	3836,02
414,693	3975,28
414,901	3821,68
415,11	4157,55
415,318	3760,24
415,526	3981,42
415,734	3756,15
415,943	3960,94
416,151	3760,24
416,359	3772,53
416,567	3680,37
416,776	3678,32
416,984	3592,31
417,192	3813,49
417,4	3682,42
417,608	3633,27
417,817	3590,26
418,025	3530,87
418,233	3711,09
418,441	3553,4
418,649	3647,6
418,857	3962,99
419,065	3721,33
419,273	3559,54
419,481	3530,87
419,689	4010,09
419,897	3879,02
420,105	4194,41
420,313	3887,22
420,521	3979,37
420,729	3762,29
420,937	4141,16
421,145	3809,39
421,353	3788,91
421,561	3727,47
421,769	3870,83
421,977	3772,53
422,185	3534,96
422,393	3706,99
422,601	3962,99
422,809	3645,56
423,017	3760,24
423,224	3582,07
423,432	3782,77
423,64	3666,03
423,848	4018,29
424,056	3584,12
424,263	3825,78
424,471	3735,67
424,679	3704,95
424,887	3676,27
425,094	3872,88
425,302	3575,92
425,51	3854,45
425,718	3547,25
425,925	3786,86
426,133	3559,54
426,341	3854,45
426,548	3666,03
426,756	3647,6
426,964	3575,92
427,171	3870,83
427,379	3629,17
427,586	3793,01
427,794	3528,82
428,001	3821,68
428,209	3592,31
428,417	3342,46
428,624	3381,37
428,832	3268,73
429,039	2873,47
429,247	2547,84
429,454	2500,74
429,662	2846,85
429,869	2461,83
430,076	2809,98
430,284	2699,39
430,491	2904,19
430,699	3385,46
430,906	3608,69
431,114	3440,76
431,321	3969,13
431,528	3868,78
431,736	4331,62
431,943	4335,72
432,15	4237,42
432,358	4180,07
432,565	4321,38
432,772	4046,96
432,979	4305
433,187	4188,27
433,394	4057,2
433,601	4360,3
433,808	4477,03
434,016	4069,48
434,223	4696,16
434,43	4657,25
434,637	4743,27
434,844	4911,2
435,052	5136,48
435,259	4964,45
435,466	5023,84
435,673	4857,95
435,88	5107,8
436,087	5204,06
436,294	5259,35
436,501	4806,75
436,708	4788,32
436,915	4515,94
437,122	4767,84
437,329	4399,21
437,537	4636,77
437,743	4403,3
437,95	4477,03
438,157	4505,7
438,364	4884,58
438,571	4677,73
438,778	4833,38
438,985	5060,7
439,192	4995,17
439,399	4966,49
439,606	4778,08
439,813	5064,8
440,02	5466,2
440,227	5277,79
440,433	5245,02
440,64	5408,86
440,847	5226,59
441,054	5449,82
441,261	5605,46
441,467	5472,34
441,674	5642,32
441,881	5714
442,088	5656,66
442,294	5460,06
442,501	5791,83
442,708	5410,9
442,914	5922,9
443,121	5918,8
443,328	5550,17
443,534	6256,72
443,741	5818,45
443,948	5451,86
444,154	5922,9
444,361	5431,38
444,568	5603,41
444,774	5228,63
444,981	5222,49
445,187	5238,87
445,394	5517,4
445,6	5210,2
445,807	5935,18
446,013	5435,48
446,22	5648,47
446,426	5638,23
446,633	5945,42
446,839	6099,02
447,046	5697,62
447,252	5951,57
447,459	6047,82
447,665	5812,31
447,871	6053,97
448,078	6113,36
448,284	5763,15
448,491	5943,38
448,697	6295,63
448,903	6201,42
449,11	6305,87
449,316	6338,63
449,522	6301,77
449,728	6451,27
449,935	6604,87
450,141	6467,66
450,347	6799,43
450,553	6352,97
450,76	6408,26
450,966	6445,13
451,172	6246,48
451,378	6209,61
451,584	6213,71
451,791	5906,51
451,997	5976,14
452,203	6078,54
452,409	6148,17
452,615	6094,93
452,821	5810,26
453,027	5816,4
453,233	6082,64
453,44	5883,98
453,646	6193,23
453,852	6168,65
454,058	6467,66
454,264	6193,23
454,47	6410,31
454,676	6410,31
454,882	6803,52
455,088	5992,53
455,294	6486,09
455,5	6615,11
455,705	6897,73
455,911	6602,82
456,117	6637,64
456,323	6694,98
456,529	6408,26
456,735	6606,92
456,941	6602,82
457,147	6752,32
457,352	6459,46
457,558	6430,79
457,764	6627,4
457,97	6639,69
458,176	6555,72
458,381	6611,01
458,587	6520,9
458,793	6697,03
458,999	6631,49
459,204	7194,68
459,41	7295,04
459,616	6678,6
459,821	7032,9
460,027	7176,25
460,233	7499,83
460,438	6989,89
460,644	7508,02
460,85	7229,5
461,055	7327,8
461,261	7307,32
461,466	7139,39
461,672	6930,5
461,878	7790,64
462,083	7360,57
462,289	7229,5
462,494	7379
462,7	7108,67
462,905	6711,36
463,111	7309,37
463,316	7491,64
463,522	7667,77
463,727	7542,84
463,932	7874,61
464,138	7778,36
464,343	7759,92
464,549	7598,13
464,754	8349,74
464,959	8304,68
465,165	8347,69
465,37	7954,48
465,575	7983,15
465,781	8183,85
465,986	8472,62
466,191	7966,77
466,397	8286,25
466,602	7725,11
466,807	8255,53
467,012	8333,36
467,218	8507,43
467,423	8560,68
467,628	8927,27
467,833	9314,33
468,038	8974,37
468,244	8900,64
468,449	9209,89
468,654	9017,38
468,859	9046,05
469,064	9130,02
469,269	8896,55
469,474	8867,88
469,679	9240,61
469,885	8929,31
470,09	9275,42
470,295	9353,24
470,5	9256,99
470,705	9611,29
470,91	9707,54
471,115	9707,54
471,32	10455,05
471,525	9975,83
471,73	10098,7
471,935	10194,96
472,139	10106,9
472,344	10178,58
472,549	10553,35
472,754	10422,28
472,959	10518,54
473,164	10514,44
473,369	10399,76
473,574	11063,3
473,778	11292,67
473,983	11083,78
474,188	11388,92
474,393	11087,87
474,598	11458,56
474,802	11126,78
475,007	11304,96
475,212	11304,96
475,417	11282,43
475,621	11331,58
475,826	11706,36
476,031	11608,06
476,235	11890,68
476,44	12124,15
476,645	11902,97
476,849	12484,59
477,054	12713,96
477,259	12613,61
477,463	12687,34
477,668	12658,67
477,872	12881,89
478,077	12804,07
478,282	12906,47
478,486	12912,61
478,691	13170,66
478,895	13324,26
479,1	13373,41
479,304	13406,17
479,509	13389,79
479,713	13199,33
479,918	13406,17
480,122	13477,85
480,326	13928,41
480,531	14127,06
480,735	13936,6
480,94	14059,48
481,144	14870,47
481,348	13848,54
481,553	14401,49
481,757	14012,37
481,961	14165,97
482,166	14378,96
482,37	14430,16
482,574	14014,42
482,778	14589,9
482,983	14538,7
483,187	14598,09
483,391	14450,64
483,595	14612,43
483,8	14446,54
484,004	14241,75
484,208	14426,06
484,412	14053,33
484,616	13557,72
484,821	13656,03
485,025	12740,58
485,229	13180,9
485,433	12529,64
485,637	12881,89
485,841	12570,6
486,045	12935,14
486,249	13240,29
486,453	13592,54
486,657	13778,9
486,861	14153,68
487,065	13963,22
487,269	14311,38
487,473	14381,01
487,677	14548,94
487,881	14643,15
488,085	14798,79
488,289	14702,54
488,493	15435,71
488,697	15171,52
488,901	15552,45
489,105	15722,43
489,309	15818,68
489,512	15658,94
489,716	16121,78
489,92	15912,89
490,124	15753,15
490,328	15792,06
490,531	15935,42
490,735	15507,39
490,939	15681,47
491,143	15228,87
491,346	15433,66
491,55	15388,61
491,754	15617,98
491,958	15851,45
492,161	15669,18
492,365	15998,9
492,569	15861,69
492,772	15624,12
492,976	16170,93
493,18	16076,73
493,383	16568,24
493,587	16687,02
493,79	16756,65
493,994	16641,96
494,197	16822,19
494,401	16584,62
494,605	16621,49
494,808	16758,7
495,012	16504,75
495,215	16562,09
495,419	16721,84
495,622	16834,47
495,825	16717,74
496,029	16609,2
496,232	16832,43
496,436	16832,43
496,639	17125,29
496,843	16857
497,046	17035,17
497,249	16795,56
497,453	16603,05
497,656	16089,01
497,859	16248,75
498,063	16097,21
498,266	16410,54
498,469	16256,95
498,673	16492,46
498,876	16517,04
499,079	16629,68
499,282	16148,4
499,485	16494,51
499,689	15890,36
499,892	16009,14
500,095	15755,19
500,298	16017,33
500,501	15617,98
500,705	15749,05
500,908	15859,64
501,111	15845,3
501,314	15814,59
501,517	15921,08
501,72	16103,35
501,923	15804,35
502,126	16355,25
502,329	16388,02
502,532	16191,41
502,735	16207,8
502,938	16123,83
503,141	16019,38
503,344	16070,58
503,547	15882,17
503,75	16070,58
503,953	16306,1
504,156	16390,06
504,359	16566,19
504,562	16705,45
504,765	16828,33
504,968	16644,01
505,17	17069,99
505,373	17035,17
505,576	17285,03
505,779	17069,99
505,982	16910,25
506,185	16637,87
506,387	16834,47
506,59	16535,47
506,793	16723,88
506,996	16498,61
507,198	16635,82
507,401	16482,22
507,604	16867,24
507,807	16830,38
508,009	17115,05
508,212	16846,76
508,415	16912,3
508,617	17102,76
508,82	16867,24
509,022	16471,98
509,225	17227,68
509,428	16967,59
509,63	16889,77
509,833	16684,97
510,035	17102,76
510,238	17084,33
510,44	16897,96
510,643	17287,07
510,845	17098,66
511,048	17012,65
511,25	17235,88
511,453	16994,22
511,655	17256,36
511,858	16879,53
512,06	17031,08
512,262	16842,67
512,465	16648,11
512,667	16345,01
512,87	17061,8
513,072	16523,18
513,274	16732,08
513,477	16596,91
513,679	16523,18
513,881	16609,2
514,084	16715,69
514,286	16922,54
514,488	16779,18
514,69	17039,27
514,893	16983,98
515,095	16801,71
515,297	16830,38
515,499	16297,91
515,701	16367,54
515,904	15708,09
516,106	15368,13
516,308	14839,75
516,51	15036,36
516,712	15081,41
516,914	15065,03
517,116	15427,52
517,318	15472,57
517,52	15337,41
517,722	15527,87
517,925	15583,16
518,127	15978,42
518,329	15839,16
518,531	16279,47
518,733	16488,37
518,935	16695,21
519,136	16836,52
519,338	17006,5
519,54	17293,22
519,742	17127,33
519,944	17063,85
520,146	17614,75
520,348	17436,58
520,55	17485,73
520,752	17508,26
520,954	17788,83
521,155	17543,07
521,357	18155,41
521,559	17702,81
521,761	17887,13
521,963	17778,59
522,164	17700,76
522,366	17788,83
522,568	17784,73
522,77	17725,34
522,971	18286,48
523,173	18020,25
523,375	18460,56
523,576	18302,87
523,778	18335,63
523,98	18513,81
524,181	18636,69
524,383	18278,29
524,584	18694,03
524,786	18399,12
524,988	18102,17
525,189	17962,9
525,391	17768,35
525,592	17514,4
525,794	17344,42
525,995	16963,5
526,197	17014,7
526,398	16613,29
526,6	16850,86
526,801	17037,22
527,003	17158,05
527,204	17424,29
527,406	17862,55
527,607	17762,2
527,808	18186,13
528,01	17741,72
528,211	18364,31
528,412	18579,34
528,614	18304,92
528,815	18343,83
529,016	18536,34
529,218	17874,84
529,419	18284,44
529,62	18341,78
529,822	18427,79
530,023	18438,03
530,224	18423,7
530,425	18481,04
530,626	18382,74
530,828	17878,94
531,029	18440,08
531,23	17956,76
531,431	17704,86
531,632	17729,44
531,833	17524,64
532,035	17158,05
532,236	17246,12
532,437	17151,91
532,638	17274,79
532,839	17129,38
533,04	17049,51
533,241	17276,84
533,442	17395,62
533,643	17139,62
533,844	17123,24
534,045	17092,52
534,246	16945,06
534,447	17358,75
534,648	17223,59
534,849	17475,49
535,05	17559,45
535,251	17274,79
535,451	17409,95
535,652	17303,46
535,853	17092,52
536,054	16943,02
536,255	16787,37
536,456	16717,74
536,657	16924,58
536,857	16826,28
537,058	16863,15
537,259	16902,06
537,46	17166,24
537,66	16863,15
537,861	16805,8
538,062	16691,12
538,263	16926,63
538,463	16547,76
538,664	16539,57
538,865	16095,16
539,065	16281,52
539,266	16041,91
539,466	16248,75
539,667	15835,07
539,868	15769,53
540,068	15658,94
540,269	15884,22
540,469	15955,9
540,67	15753,15
540,87	15884,22
541,071	15900,6
541,271	15906,74
541,472	16009,14
541,672	15812,54
541,873	15691,71
542,073	15585,21
542,274	15951,8
542,474	15933,37
542,675	15738,81
542,875	15849,4
543,075	16043,96
543,276	15781,82
543,476	16113,59
543,676	15843,26
543,877	16400,3
544,077	16172,98
544,277	15945,66
544,478	16039,86
544,678	16308,15
544,878	16031,67
545,078	16132,02
545,279	15974,33
545,479	15853,5
545,679	15880,12
545,879	15859,64
546,079	15757,24
546,28	15833,02
546,48	15546,3
546,68	15757,24
546,88	15509,44
547,08	15486,91
547,28	15200,19
547,48	15577,02
547,68	15290,31
547,88	15429,57
548,081	15732,67
548,281	15771,58
548,481	15433,66
548,681	15673,28
548,881	15581,12
549,081	15540,16
549,28	15519,68
549,48	15787,96
549,68	15450,05
549,88	15660,99
550,08	15323,07
550,28	15331,26
550,48	15222,72
550,68	15544,25
550,88	15431,62
551,08	15591,36
551,279	15560,64
551,479	15280,07
551,679	15499,2
551,879	15329,22
552,079	15247,3
552,278	15531,97
552,478	15157,19
552,678	15183,81
552,878	15503,29
553,077	15427,52
553,277	15196,1
553,477	15364,03
553,676	15386,56
553,876	15513,53
554,076	15333,31
554,275	15564,73
554,475	15181,76
554,674	15445,95
554,874	15542,21
555,074	15679,42
555,273	15243,2
555,473	15499,2
555,672	14974,92
555,872	14923,72
556,071	14997,45
556,271	15015,88
556,47	14426,06
556,67	14786,51
556,869	14741,45
557,068	14727,11
557,268	14811,08
557,467	14673,87
557,667	14763,98
557,866	14524,37
558,065	14338
558,265	14321,62
558,464	14239,7
558,663	14643,15
558,863	14260,18
559,062	14731,21
559,261	14147,54
559,461	14499,79
559,66	14143,44
559,859	14579,66
560,058	14667,72
560,258	15069,12
560,457	14602,19
560,656	14796,74
560,855	14311,38
561,054	14557,13
561,253	14395,34
561,453	14397,39
561,652	14399,44
561,851	14567,37
562,05	14385,1
562,249	14526,41
562,448	14620,62
562,647	14542,8
562,846	14415,82
563,045	14841,8
563,244	14299,09
563,443	14751,69
563,642	14290,9
563,841	14645,2
564,04	14407,63
564,239	14518,22
564,438	14292,94
564,637	14366,67
564,836	14221,27
565,035	13793,24
565,234	14008,28
565,432	13967,32
565,631	13946,84
565,83	14071,76
566,029	14106,58
566,228	14131,16
566,427	14374,86
566,625	14098,39
566,824	14206,93
567,023	14569,42
567,222	14032,85
567,42	14282,7
567,619	13981,65
567,818	13842,39
568,016	13936,6
568,215	14159,83
568,414	13842,39
568,612	14036,95
568,811	14032,85
569,01	14004,18
569,208	13461,47
569,407	13791,19
569,605	13608,92
569,804	13875,16
570,002	13285,34
570,201	13527
570,4	13406,17
570,598	13174,75
570,797	13230,05
570,995	13649,88
571,193	13588,44
571,392	13826,01
571,59	13877,21
571,789	13897,69
571,987	13776,86
572,186	13680,6
572,384	13905,88
572,582	14208,98
572,781	14030,8
572,979	13735,9
573,177	13940,69
573,376	13995,99
573,574	13739,99
573,772	13920,21
573,971	13651,93
574,169	13688,79
574,367	13510,62
574,565	13432,8
574,763	13307,87
574,962	13322,21
575,16	13258,72
575,358	13498,33
575,556	13205,47
575,754	13594,59
575,952	13320,16
576,151	13561,82
576,349	13373,41
576,547	13451,23
576,745	13271,01
576,943	13350,88
577,141	13195,23
577,339	13297,63
577,537	13062,12
577,735	13062,12
577,933	12920,81
578,131	13125,6
578,329	13043,68
578,527	13082,6
578,725	12922,85
578,923	13115,36
579,121	13010,92
579,319	13262,82
579,516	13230,05
579,714	13236,19
579,912	13133,79
580,11	12902,37
580,308	13416,41
580,506	13549,53
580,704	13135,84
580,901	13406,17
581,099	13176,8
581,297	13436,89
581,495	13357,02
581,692	13754,33
581,89	13504,48
582,088	13543,39
582,285	13588,44
582,483	13549,53
582,681	13299,68
582,878	13363,17
583,076	13152,23
583,274	13547,48
583,471	13256,67
583,669	13590,49
583,866	13107,17
584,064	13639,64
584,262	12988,39
584,459	13314,02
584,657	13111,27
584,854	13101,03
585,052	12926,95
585,249	12820,46
585,447	12947,43
585,644	12867,56
585,841	12951,53
586,039	13258,72
586,236	13021,16
586,434	13012,96
586,631	13021,16
586,828	13428,7
587,026	13133,79
587,223	12984,29
587,42	12789,74
587,618	12629,99
587,815	12460,01
588,012	12480,49
588,21	12011,51
588,407	11997,17
588,604	11347,97
588,801	11505,66
588,999	11397,12
589,196	11382,78
589,393	11724,79
589,59	11696,12
589,787	11974,64
589,984	12023,8
590,182	12214,26
590,379	12570,6
590,576	12261,36
590,773	12419,05
590,97	12107,76
591,167	12322,8
591,364	12103,67
591,561	12478,44
591,758	12357,61
591,955	12101,62
592,152	12488,68
592,349	12578,79
592,546	12519,4
592,743	12214,26
592,94	12269,55
593,137	12343,28
593,334	12306,41
593,531	12034,04
593,727	12144,63
593,924	12341,23
594,121	11923,44
594,318	12324,85
594,515	11806,71
594,712	11968,5
594,908	11931,64
595,105	12048,37
595,302	12023,8
595,499	12003,32
595,696	11980,79
595,892	12113,91
596,089	11993,08
596,286	12093,43
596,482	12013,56
596,679	11931,64
596,876	12011,51
597,072	12232,69
597,269	11882,49
597,466	11577,34
597,662	11702,26
597,859	11958,26
598,055	11683,83
598,252	11538,43
598,448	11702,26
598,645	11741,18
598,841	11796,47
599,038	11880,44
599,234	11708,41
599,431	11626,49
599,627	11436,03
599,824	11782,13
600,02	11505,66
600,217	11612,15
600,413	11177,98
600,609	11403,26
600,806	11479,04
601,002	11546,62
601,198	11321,34
601,395	11438,08
601,591	11278,33
601,787	11286,53
601,984	11444,22
602,18	11505,66
602,376	11372,54
602,572	11747,32
602,769	11579,39
602,965	11743,22
603,161	11687,93
603,357	11591,67
603,553	11372,54
603,75	11792,37
603,946	11436,03
604,142	11591,67
604,338	11151,36
604,534	11708,41
604,73	11606,01
604,926	11638,78
605,122	11661,3
605,318	11489,28
605,514	11530,23
605,71	11431,93
605,906	11407,36
606,102	11438,08
606,298	11329,53
606,494	11489,28
606,69	11778,04
606,886	11585,53
607,082	11501,56
607,278	11603,96
607,474	11522,04
607,67	11606,01
607,866	11264
608,062	11352,06
608,257	11393,02
608,453	11503,61
608,649	11337,73
608,845	11266,05
609,041	11620,35
609,236	11667,45
609,432	11399,16
609,628	11407,36
609,824	11227,14
610,019	11075,59
610,215	11227,14
610,411	11405,31
610,606	11350,01
610,802	11595,77
610,998	11481,08
611,193	11530,23
611,389	11384,83
611,584	11436,03
611,78	11624,44
611,976	11726,84
612,171	11354,11
612,367	11491,32
612,562	11309,05
612,758	11366,4
612,953	11243,52
613,149	11513,85
613,344	11220,99
613,539	11411,45
613,735	11595,77
613,93	11497,47
614,126	11528,19
614,321	11765,75
614,517	11630,59
614,712	11851,77
614,907	11632,63
615,103	11714,55
615,298	11595,77
615,493	11849,72
615,688	11370,49
615,884	11544,57
616,079	11194,37
616,274	11663,35
616,47	11724,79
616,665	11495,42
616,86	11298,81
617,055	11601,91
617,25	11808,76
617,445	11845,62
617,641	11816,95
617,836	11808,76
618,031	11718,65
618,226	11704,31
618,421	11743,22
618,616	12109,81
618,811	11839,48
619,006	12136,43
619,201	11808,76
619,396	12206,06
619,591	11567,1
619,786	11929,59
619,981	11659,26
620,176	12146,67
620,371	11843,57
620,566	11925,49
620,761	11669,5
620,956	11599,87
621,151	11603,96
621,346	11718,65
621,541	11466,75
621,735	11845,62
621,93	11335,68
622,125	11692,02
622,32	11354,11
622,515	11288,57
622,709	11264
622,904	11268,09
623,099	11227,14
623,294	11294,72
623,488	10848,26
623,683	11173,89
623,878	11110,4
624,072	11245,57
624,267	11108,35
624,462	10891,27
624,656	10590,22
624,851	10719,24
625,046	10526,73
625,24	10698,76
625,435	10764,29
625,629	10827,78
625,824	10618,89
626,018	10690,57
626,213	10532,87
626,407	10846,21
626,602	10782,73
626,796	10864,64
626,991	10622,98
627,185	10477,58
627,38	10252,3
627,574	10256,4
627,768	10121,23
627,963	10262,54
628,157	9973,78
628,352	10334,22
628,546	10002,45
628,74	10158,1
628,935	9695,25
629,129	10237,97
629,323	10145,81
629,517	10020,88
629,712	10100,75
629,906	9963,54
630,1	9775,13
630,294	10172,43
630,489	9775,13
630,683	10090,51
630,877	9895,96
631,071	9920,53
631,265	9986,07
631,459	9811,99
631,653	9922,58
631,848	10074,13
632,042	9961,49
632,236	10131,47
632,43	9873,43
632,624	9973,78
632,818	9758,74
633,012	9799,7
633,206	9717,78
633,4	9588,76
633,594	9611,29
633,788	9779,22
633,982	9797,65
634,176	9791,51
634,369	9707,54
634,563	9959,44
634,757	9549,85
634,951	9777,17
635,145	9687,06
635,339	9646,1
635,533	9668,63
635,726	9758,74
635,92	9390,11
636,114	9642,01
636,308	9609,24
636,501	9545,75
636,695	9705,49
636,889	9627,67
637,083	9541,66
637,276	9799,7
637,47	9445,4
637,664	9500,7
637,857	9797,65
638,051	9850,9
638,244	9564,18
638,438	9574,42
638,632	9185,31
638,825	9461,79
639,019	9351,2
639,212	9416,73
639,406	9347,1
639,599	9326,62
639,793	9555,99
639,986	9164,83
640,18	9234,46
640,373	9216,03
640,567	8996,9
640,76	9072,67
640,954	9066,53
641,147	9265,18
641,34	9185,31
641,534	9175,07
641,727	9048,1
641,92	9224,22
642,114	9388,06
642,307	9252,89
642,5	9209,89
642,694	9175,07
642,887	9084,96
643,08	9363,48
643,273	9033,76
643,467	9242,65
643,66	9039,9
643,853	9220,13
644,046	8925,22
644,239	9328,67
644,432	9185,31
644,626	9297,95
644,819	8933,41
645,012	9234,46
645,205	8755,24
645,398	8998,95
645,591	8679,46
645,784	8669,22
645,977	8851,49
646,17	8826,92
646,363	8603,69
646,556	8871,97
646,749	8765,48
646,942	9080,86
647,135	8706,09
647,328	8689,7
647,521	8609,83
647,714	8532,01
647,907	8667,17
648,099	8718,37
648,292	8712,23
648,485	8695,85
648,678	8343,6
648,871	8245,29
649,064	7956,53
649,256	8417,32
649,449	8364,08
649,642	8398,89
649,835	8448,04
650,027	8742,95
650,22	8413,23
650,413	8646,69
650,605	8433,71
650,798	8482,86
650,991	8325,16
651,183	8730,66
651,376	8351,79
651,568	8579,11
651,761	8372,27
651,954	8400,94
652,146	8282,16
652,339	8495,15
652,531	8505,38
652,724	8501,29
652,916	8276,01
653,109	8470,57
653,301	8370,22
653,494	8333,36
653,686	8071,22
653,879	8302,64
654,071	8298,54
654,263	8302,64
654,456	8087,6
654,648	7688,25
654,84	7653,43
655,033	7727,16
655,225	7264,32
655,417	7278,65
655,61	6803,52
655,802	6785,09
655,994	6465,61
656,186	6660,17
656,379	6815,81
656,571	6983,74
656,763	7145,53
656,955	7438,39
657,148	7364,67
657,34	7643,19
657,532	7567,42
657,724	7708,73
657,916	7589,94
658,108	7841,84
658,3	7682,1
658,492	7860,27
658,684	7747,64
658,876	7737,4
659,068	7911,47
659,26	7866,42
659,452	7794,74
659,644	8060,98
659,836	7696,44
660,028	8087,6
660,22	7804,98
660,412	7798,84
660,604	7766,07
660,796	8126,51
660,988	7784,5
661,18	7940,15
661,372	7792,69
661,563	8032,3
661,755	7948,34
661,947	8015,92
662,139	7747,64
662,331	7860,27
662,522	7555,13
662,714	7678,01
662,906	7557,18
663,097	7538,74
663,289	7587,89
663,481	7698,49
663,673	7450,68
663,864	7604,28
664,056	7591,99
664,247	7571,51
664,439	7399,48
664,631	7659,57
664,822	7512,12
665,014	7686,2
665,205	7442,49
665,397	7467,06
665,588	7471,16
665,78	7538,74
665,971	7395,39
666,163	7551,03
666,354	7516,22
666,546	7383,1
666,737	7102,53
666,929	7526,46
667,12	7223,36
667,311	7405,63
667,503	7319,61
667,694	7313,47
667,885	7188,54
668,077	7589,94
668,268	7323,71
668,459	7458,87
668,651	7639,09
668,842	7354,43
669,033	7192,64
669,224	7417,91
669,416	7131,2
669,607	7311,42
669,798	7131,2
669,989	7163,97
670,18	7198,78
670,371	7231,55
670,563	7055,42
670,754	7131,2
670,945	6860,87
671,136	7186,49
671,327	6899,78
671,518	6885,44
671,709	6926,4
671,9	7161,92
672,091	6815,81
672,282	7233,6
672,473	6981,7
672,664	7106,62
672,855	7221,31
673,046	7235,64
673,237	6842,43
673,428	6973,5
673,619	6856,77
673,809	6883,39
674	6668,36
674,191	7096,38
674,382	6770,76
674,573	7010,37
674,764	6744,13
674,954	6959,17
675,145	6711,36
675,336	6869,06
675,527	6727,75
675,717	6926,4
675,908	6668,36
676,099	6867,01
676,289	6807,62
676,48	6733,89
676,671	6512,71
676,861	6864,96
677,052	6670,4
677,243	6713,41
677,433	6717,51
677,624	6735,94
677,814	6627,4
678,005	6987,84
678,195	6717,51
678,386	6834,24
678,576	6692,93
678,767	6686,79
678,957	6484,04
679,148	6471,75
679,338	6582,34
679,529	6533,19
679,719	6295,63
679,909	6727,75
680,1	6586,44
680,29	6834,24
680,481	6500,42
680,671	6565,96
680,861	6432,84
681,052	6934,59
681,242	6565,96
681,432	6443,08
681,622	6299,72
681,813	6312,01
682,003	6504,52
682,193	6647,88
682,383	6492,23
682,573	6664,26
682,764	6486,09
682,954	6557,77
683,144	6303,82
683,334	6357,07
683,524	6228,04
683,714	6426,7
683,904	5957,71
684,094	6510,66
684,284	6125,65
684,474	6127,69
684,664	6303,82
684,854	6375,5
685,044	6117,45
685,234	6185,04
685,424	6142,03
685,614	6195,28
685,804	5867,6
685,994	5869,65
686,184	5290,07
686,374	4962,4
686,564	4264,04
686,753	4067,44
686,943	3577,97
687,133	3924,08
687,323	3999,85
687,513	4227,18
687,702	4325,48
687,892	4638,82
688,082	4223,08
688,272	4687,97
688,461	4747,36
688,651	4761,7
688,841	4452,45
689,03	4673,64
689,22	4573,28
689,41	4685,92
689,599	4622,44
689,789	4831,33
689,979	4763,75
690,168	4898,91
690,358	4946,02
690,547	4878,43
690,737	4917,34
690,926	5152,86
691,116	4929,63
691,305	5378,14
691,495	5154,91
691,684	5312,6
691,874	5345,37
692,063	5285,98
692,252	5089,37
692,442	5525,59
692,631	5492,82
692,82	5554,26
693,01	5398,62
693,199	5650,52
693,388	5351,51
693,578	5556,31
693,767	5533,78
693,956	5550,17
694,146	5439,58
694,335	5554,26
694,524	5320,79
694,713	5460,06
694,902	5482,58
695,092	5591,13
695,281	5501,01
695,47	5591,13
695,659	5490,77
695,848	5722,2
696,037	5564,5
696,226	5677,14
696,415	5509,21
696,604	5765,2
696,793	5460,06
696,982	5476,44
697,171	5443,67
697,36	5519,45
697,549	5498,97
697,738	5498,97
697,927	5202,01
698,116	5367,9
698,305	5052,51
698,494	5468,25
698,683	5259,35
698,872	5263,45
699,061	5308,51
699,25	5396,57
699,438	5226,59
699,627	5228,63
699,816	5058,65
700,005	5279,83
700,193	5083,23
700,382	5271,64
700,571	4982,88
700,76	5161,05
700,948	5187,68
701,137	5417,05
701,326	5044,32
701,514	5116
701,703	5173,34
701,892	5056,61
702,08	4976,73
702,269	5058,65
702,457	5132,38
702,646	5318,75
702,834	5101,66
703,023	5120,09
703,212	5019,74
703,4	5165,15
703,589	4984,93
703,777	5077,09
703,965	4892,77
704,154	5236,83
704,342	5255,26
704,531	5238,87
704,719	4845,66
704,907	5140,57
705,096	4880,48
705,284	5040,22
705,472	5189,72
705,661	4993,12
705,849	4857,95
706,037	5288,03
706,226	5066,85
706,414	5034,08
706,602	4982,88
706,79	4960,35
706,979	4948,06
707,167	5122,14
707,355	4870,24
707,543	4991,07
707,731	4866,14
707,919	4966,49
708,107	4771,94
708,296	4894,82
708,484	4737,12
708,672	4845,66
708,86	4833,38
709,048	4819,04
709,236	4663,4
709,424	4710,5
709,612	4745,31
709,8	4917,34
709,988	4702,31
710,176	4878,43
710,364	4591,72
710,551	4833,38
710,739	4706,4
710,927	4706,4
711,115	4624,48
711,303	4718,69
711,491	4296,81
711,679	4747,36
711,866	4526,18
712,054	4796,51
712,242	4485,22
712,43	4853,86
712,617	4442,21
712,805	4743,27
712,993	4509,8
713,181	4649,06
713,368	4530,28
713,556	4765,79
713,744	4452,45
713,931	4591,72
714,119	4520,04
714,306	4540,52
714,494	4280,43
714,682	4450,41
714,869	4376,68
715,057	4493,41
715,244	4354,15
715,432	4542,57
715,619	4429,93
715,807	4552,81
715,994	4221,03
716,182	4114,54
716,369	3944,56
716,556	4087,92
716,744	3825,78
716,931	4073,58
717,119	3797,1
717,306	3893,36
717,493	3797,1
717,681	3661,94
717,868	3530,87
718,055	3711,09
718,242	3262,58
718,43	3395,7
718,617	3213,43
718,804	3414,13
718,991	3197,05
719,179	3416,18
719,366	3197,05
719,553	3434,61
719,74	3051,64
719,927	3102,84
720,114	3377,27
720,301	3432,57
720,488	3182,71
720,676	3438,71
720,863	3508,34
721,05	3836,02
721,237	3620,98
721,424	3854,45
721,611	3500,15
721,798	3833,97
721,985	3584,12
722,172	3690,61
722,358	3555,44
722,545	3735,67
722,732	3369,08
722,919	3502,2
723,106	3395,7
723,293	3496,05
723,48	3190,91
723,667	3403,89
723,853	3197,05
724,04	3321,98
724,227	3375,22
724,414	3448,95
724,6	3328,12
724,787	3289,21
724,974	3156,09
725,161	3391,61
725,347	3207,29
725,534	3430,52
725,72	3199,1
725,907	3291,26
726,094	3131,51
726,28	3188,86
726,467	3063,93
726,653	3377,27
726,84	3186,81
727,027	3342,46
727,213	3018,88
727,4	3172,47
727,586	3235,96
727,773	3358,84
727,959	3229,82
728,145	3410,04
728,332	3084,41
728,518	3145,85
728,705	2961,53
728,891	3090,56
729,077	3084,41
729,264	3133,56
729,45	3008,64
729,636	3127,42
729,823	3076,22
730,009	3311,74
730,195	3127,42
730,382	3223,67
730,568	3025,02
730,754	3098,75
730,94	3098,75
731,126	3246,2
731,313	3162,23
731,499	3309,69
731,685	3100,8
731,871	3250,3
732,057	3166,33
732,243	3360,89
732,429	3281,02
732,615	3219,58
732,801	3049,6
732,987	3336,31
733,173	3197,05
733,359	3442,81
733,545	3141,75
733,731	3266,68
733,917	3231,87
734,103	3461,24
734,289	3195
734,475	3297,4
734,661	3065,98
734,847	3125,37
735,033	3123,32
735,219	3182,71
735,404	2969,73
735,59	3262,58
735,776	3016,83
735,962	3240,06
736,148	3072,12
736,333	3131,51
736,519	2953,34
736,705	3262,58
736,89	2990,21
737,076	3225,72
737,262	2971,77
737,447	3311,74
737,633	3000,44
737,819	3068,03
738,004	2830,46
738,19	3051,64
738,375	2898,05
738,561	3010,68
738,747	2812,03
738,932	3162,23
739,118	2781,31
739,303	2924,67
739,489	2816,13
739,674	2984,06
739,859	2668,67
740,045	2869,37
740,23	2640
740,416	2916,48
740,601	2732,16
740,786	2832,51
740,972	2685,06
741,157	2814,08
741,342	2787,46
741,528	2900,09
741,713	2576,52
741,898	2814,08
742,084	2740,35
742,269	2904,19
742,454	2838,66
742,639	2871,42
742,824	2621,57
743,01	2920,57
743,195	2809,98
743,38	2928,77
743,565	2746,5
743,75	2773,12
743,935	2523,27
744,12	2742,4
744,305	2605,19
744,49	2683,01
744,675	2531,46
744,86	2789,5
745,045	2701,44
745,23	2691,2
745,415	2660,48
745,6	2650,24
745,785	2533,51
745,97	2797,7
746,155	2482,31
746,34	2732,16
746,525	2633,86
746,71	2871,42
746,895	2697,35
747,079	2838,66
747,264	2568,32
747,449	2631,81
747,634	2543,75
747,819	2773,12
748,003	2414,73
748,188	2615,43
748,373	2580,61
748,557	2535,56
748,742	2508,93
748,927	2443,4
749,111	2492,55
749,296	2605,19
749,481	2457,73
749,665	2609,28
749,85	2422,92
750,034	2584,71
750,219	2222,22
750,404	2568,32
750,588	2377,86
750,773	2361,48
750,957	2179,21
751,141	2420,87
751,326	2388,1
751,51	2517,12
751,695	2359,43
751,879	2445,45
752,064	2265,22
752,248	2369,67
752,432	2285,7
752,617	2248,84
752,801	2326,66
752,985	2394,25
753,17	2183,31
753,354	2330,76
753,538	2171,02
753,722	2191,5
753,907	2179,21
754,091	2277,51
754,275	2097,29
754,459	2265,22
754,643	2150,54
754,828	2285,7
755,012	2109,58
755,196	2248,84
755,38	2183,31
755,564	2230,41
755,748	2144,39
755,932	2136,2
756,116	1960,08
756,3	2005,13
756,484	1943,69
756,668	2191,5
756,852	1888,4
757,036	2027,66
757,22	1972,36
757,404	2064,52
757,588	1841,29
757,772	1912,97
757,956	1958,03
758,14	1896,59
758,323	1798,29
758,507	1904,78
758,691	1544,34
758,875	1525,91
759,059	1120,41
759,242	796,83
759,426	356,52
759,61	315,56
759,794	168,1
759,977	151,72
760,161	123,05
760,345	149,67
760,528	94,38
760,712	75,95
760,895	77,99
761,079	92,33
761,263	207,02
761,446	231,59
761,63	231,59
761,813	207,02
761,997	241,83
762,18	250,02
762,364	166,06
762,547	229,54
762,731	217,26
762,914	225,45
763,098	133,29
763,281	184,49
763,464	161,96
763,648	182,44
763,831	168,1
764,015	278,69
764,198	241,83
764,381	389,28
764,564	422,05
764,748	428,2
764,931	428,2
765,114	577,7
765,297	620,71
765,481	755,87
765,664	815,26
765,847	886,94
766,03	856,22
766,213	1011,87
766,397	1147,03
766,58	1253,53
766,763	1282,2
766,946	1566,87
767,129	1435,8
767,312	1693,84
767,495	1527,96
767,678	1837,2
767,861	1779,86
768,044	1968,27
768,227	1773,71
768,41	1958,03
768,593	1900,69
768,776	2023,56
768,959	1988,75
769,142	2166,92
769,324	2037,9
769,507	2033,8
769,69	1949,84
769,873	2222,22
770,056	2162,83
770,239	2386,05
770,421	2191,5
770,604	2310,28
770,787	2125,96
770,97	2248,84
771,152	2160,78
771,335	2394,25
771,518	2351,24
771,7	2388,1
771,883	2226,31
772,066	2254,98
772,248	2324,62
772,431	2369,67
772,613	2136,2
772,796	2320,52
772,978	2261,13
773,161	2418,82
773,343	2377,86
773,526	2467,97
773,708	2359,43
773,891	2443,4
774,073	2347,14
774,256	2254,98
774,438	2324,62
774,621	2486,4
774,803	2306,18
774,985	2404,49
775,168	2232,46
775,35	2316,42
775,532	2330,76
775,715	2492,55
775,897	2263,18
776,079	2556,04
776,261	2416,77
776,444	2564,23
776,626	2349,19
776,808	2263,18
776,99	2199,69
777,173	2553,99
777,355	2322,57
777,537	2404,49
777,719	2201,74
777,901	2322,57
778,083	2363,53
778,265	2289,8
778,447	2246,79
778,629	2248,84
778,811	2080,91
778,993	2201,74
779,175	2068,62
779,357	2236,55
779,539	2138,25
779,721	2279,56
779,903	2066,57
780,085	2322,57
780,267	2037,9
780,449	2257,03
780,631	2007,18
780,812	2240,65
780,994	1945,74
781,176	2297,99
781,358	2103,43
781,54	2293,9
781,721	2048,14
781,903	2125,96
782,085	2101,39
782,267	2060,43
782,448	1921,17
782,63	2093,19
782,812	1904,78
782,993	1900,69
783,175	1810,58
783,357	1931,41
783,538	1691,79
783,72	2042
783,901	1773,71
784,083	1845,39
784,264	1663,12
784,446	1912,97
784,627	1845,39
784,809	1876,11
784,99	1855,63
785,172	1829,01
785,353	1814,67
785,535	1949,84
785,716	1902,73
785,897	1749,14
786,079	1714,32
786,26	1786
786,441	1665,17
786,623	1630,35
786,804	1577,11
786,985	1716,37
787,167	1532,05
787,348	1691,79
787,529	1607,83
787,71	1720,46
787,891	1495,19
788,073	1544,34
788,254	1325,21
788,435	1501,33
788,616	1433,75
788,797	1544,34
788,978	1343,64
789,159	1427,6
789,34	1454,23
789,522	1464,47
789,703	1392,79
789,884	1503,38
790,065	1403,03
790,246	1427,6
790,427	1333,4
790,607	1429,65
790,788	1290,39
790,969	1355,93
791,15	1243,29
791,331	1278,1
791,512	1298,58
791,693	1339,54
791,874	1271,96
792,054	1360,02
792,235	1220,76
792,416	1257,62
792,597	1134,75
792,778	1251,48
792,958	1110,17
793,139	1298,58
793,32	1061,02
793,5	1257,62
793,681	1118,36
793,862	1249,43
794,042	1046,68
794,223	1020,06
794,404	1171,61
794,584	1126,55
794,765	1065,11
794,945	1110,17
795,126	1009,82
795,306	1157,27
795,487	1136,79
795,667	1132,7
795,848	1052,83
796,028	1126,55
796,209	999,58
796,389	1179,8
796,57	991,39
796,75	1052,83
796,93	1065,11
797,111	1114,27
797,291	1050,78
797,471	1142,94
797,652	1003,68
797,832	1081,5
798,012	1083,55
798,192	1024,16
798,373	999,58
798,553	1173,66
798,733	899,23
798,913	983,2
799,093	876,7
799,274	1069,21
799,454	888,99
799,634	999,58
799,814	745,63
799,994	999,58
800,174	835,74
800,354	929,95
800,534	782,49
800,714	1005,72
800,894	936,09
801,074	970,91
801,254	897,18
801,434	954,52
801,614	911,52
801,794	839,84
801,974	766,11
802,154	878,75
802,334	772,25
802,514	909,47
802,693	721,06
802,873	786,59
803,053	774,3
803,233	925,85
803,413	823,45
803,592	880,8
803,772	800,93
803,952	835,74
804,131	784,54
804,311	835,74
804,491	737,44
804,67	721,06
804,85	766,11
805,03	774,3
805,209	753,82
805,389	753,82
805,568	815,26
805,748	782,49
805,928	800,93
806,107	764,06
806,287	624,8
806,466	829,6
806,646	690,34
806,825	729,25
807,004	665,76
807,184	774,3
807,363	725,15
807,543	731,3
807,722	723,1
807,901	762,02
808,081	573,6
808,26	667,81
808,439	540,83
808,619	663,71
808,798	512,16
808,977	637,09
809,156	553,12
809,336	630,95
809,515	571,55
809,694	747,68
809,873	585,89
810,052	594,08
810,231	626,85
810,411	657,57
810,59	577,7
810,769	606,37
810,948	542,88
811,127	700,58
811,306	622,75
811,485	553,12
811,664	604,32
811,843	594,08
812,022	522,4
812,201	622,75
812,38	555,17
812,559	577,7
812,737	512,16
812,916	551,07
813,095	520,35
813,274	473,25
813,453	536,74
813,632	422,05
813,811	477,35
813,989	487,59
814,168	348,33
814,347	501,92
814,526	397,48
814,704	379,04
814,883	350,37
815,062	389,28
815,24	405,67
815,419	420
815,598	282,79
815,776	381,09
815,955	444,58
816,133	321,7
816,312	413,86
816,49	372,9
816,669	364,71
816,847	477,35
817,026	422,05
817,204	405,67
817,383	280,74
817,561	344,23
817,74	293,03
817,918	286,89
818,097	338,09
818,275	350,37
818,453	270,5
818,632	319,65
818,81	272,55
818,988	315,56
819,167	288,93
819,345	274,6
819,523	342,18
819,701	311,46
819,879	299,17
820,058	284,84
820,236	321,7
820,414	315,56
820,592	389,28
820,77	446,63
820,948	397,48
821,127	397,48
821,305	352,42
821,483	319,65
821,661	352,42
821,839	327,85
822,017	250,02
822,195	254,12
822,373	231,59
822,551	315,56
822,729	280,74
822,907	221,35
823,085	258,21
823,262	282,79
823,44	254,12
823,618	278,69
823,796	290,98
823,974	319,65
824,152	184,49
824,329	346,28
824,507	305,32
824,685	293,03
824,863	356,52
825,04	290,98
825,218	315,56
825,396	237,74
825,574	245,93
825,751	299,17
825,929	280,74
826,107	315,56
826,284	336,04
826,462	286,89
826,639	340,13
826,817	319,65
826,994	250,02
827,172	313,51
827,349	204,97
827,527	215,21
827,704	235,69
827,882	225,45
828,059	147,62
828,237	266,41
828,414	245,93
828,591	194,73
828,769	207,02
828,946	274,6
829,124	192,68
829,301	223,4
829,478	274,6
829,655	215,21
829,833	131,24
830,01	293,03
830,187	268,45
830,364	182,44
830,542	254,12
830,719	338,09
830,896	245,93
831,073	250,02
831,25	231,59
831,427	196,78
831,604	327,85
831,782	192,68
831,959	188,58
832,136	225,45
832,313	225,45
832,49	198,82
832,667	186,54
832,844	178,34
833,021	239,78
833,198	217,26
833,374	178,34
833,551	286,89
833,728	168,1
833,905	209,06
834,082	217,26
834,259	211,11
834,436	135,34
834,612	274,6
834,789	192,68
834,966	258,21
835,143	176,3
835,319	198,82
835,496	237,74
835,673	209,06
835,85	250,02
836,026	209,06
836,203	233,64
836,38	260,26
836,556	137,38
836,733	225,45
836,909	221,35
837,086	225,45
837,262	176,3
837,439	174,25
837,616	164,01
837,792	196,78
837,968	123,05
838,145	135,34
838,321	133,29
838,498	250,02
838,674	118,95
838,851	198,82
839,027	245,93
839,203	176,3
839,38	229,54
839,556	149,67
839,732	217,26
839,909	166,06
840,085	90,28
840,261	215,21
840,437	200,87
840,614	200,87
840,79	131,24
840,966	217,26
841,142	149,67
841,318	155,82
841,494	149,67
841,671	172,2
841,847	143,53
842,023	110,76
842,199	159,91
842,375	110,76
842,551	143,53
842,727	184,49
842,903	145,58
843,079	143,53
843,255	67,75
843,431	110,76
843,607	112,81
843,783	118,95
843,959	127,14
844,134	237,74
844,31	133,29
844,486	131,24
844,662	118,95
844,838	172,2
845,013	77,99
845,189	118,95
845,365	94,38
845,541	155,82
845,716	129,19
845,892	125,1
846,068	176,3
846,244	192,68
846,419	139,43
846,595	73,9
846,77	159,91
846,946	135,34
847,122	73,9
847,297	159,91
847,473	141,48
847,648	45,23
847,824	135,34
847,999	125,1
848,175	180,39
848,35	92,33
848,526	155,82
848,701	65,71
848,876	110,76
849,052	61,61
849,227	69,8
849,403	125,1
849,578	94,38
849,753	12,46
849,929	118,95
850,104	84,14
850,279	86,19
850,454	92,33
850,63	110,76
850,805	172,2
850,98	86,19
851,155	77,99
851,33	94,38
851,505	69,8
851,681	77,99
851,856	82,09
852,031	77,99
852,206	159,91
852,381	90,28
852,556	63,66
852,731	123,05
852,906	125,1
853,081	102,57
853,256	114,86
853,431	116,9
853,606	116,9
853,781	69,8
853,956	80,04
854,131	59,56
854,305	77,99
854,48	84,14
854,655	10,41
854,83	53,42
855,005	34,99
855,18	90,28
855,354	22,7
855,529	73,9
855,704	26,79
855,879	118,95
856,053	92,33
856,228	77,99
856,403	104,62
856,577	63,66
856,752	20,65
856,926	59,56
857,101	-28,5
857,276	176,3
857,45	86,19
857,625	24,75
857,799	135,34
857,974	51,37
858,148	102,57
858,323	51,37
858,497	69,8
858,672	67,75
858,846	18,6
859,02	53,42
859,195	92,33
859,369	133,29
859,543	75,95
859,718	59,56
859,892	49,32
860,066	65,71
860,241	86,19
860,415	24,75
860,589	12,46
860,763	-12,12
860,938	-8,02
861,112	73,9
861,286	73,9
861,46	45,23
861,634	84,14
861,808	28,84
861,982	12,46
862,157	12,46
862,331	37,03
862,505	28,84
862,679	53,42
862,853	77,99
863,027	123,05
863,201	20,65
863,375	51,37
863,549	73,9
863,722	110,76
863,896	67,75
864,07	12,46
864,244	20,65
864,418	65,71
864,592	82,09
864,766	57,51
864,939	20,65
865,113	-20,31
865,287	108,71
865,461	51,37
865,634	110,76
865,808	67,75
865,982	106,67
866,156	28,84
866,329	28,84
866,503	28,84
866,676	77,99
866,85	16,55
867,024	34,99
867,197	2,22
867,371	26,79
867,544	108,71
867,718	108,71
867,891	30,89
868,065	20,65
868,238	10,41
868,412	2,22
868,585	57,51
868,759	45,23
868,932	65,71
869,105	28,84
869,279	8,36
869,452	114,86
869,625	-3,93
869,799	-10,07
869,972	63,66
870,145	20,65
870,319	20,65
870,492	77,99
870,665	28,84
870,838	-3,93
871,011	53,42
871,185	110,76
871,358	110,76
871,531	43,18
871,704	43,18
871,877	67,75
872,05	84,14
872,223	75,95
872,396	28,84
872,569	-32,6
872,742	37,03
872,915	53,42
873,088	41,13
873,261	69,8
873,434	32,94
873,607	75,95
873,78	10,41
873,953	16,55
874,126	47,27
874,299	49,32
874,471	-3,93
874,644	94,38
874,817	34,99
874,99	75,95
875,163	84,14
875,335	-5,97
875,508	69,8
875,681	45,23
875,853	16,55
876,026	12,46
876,199	20,65
876,371	45,23
876,544	37,03
876,717	18,6
876,889	80,04
877,062	59,56
877,234	102,57
877,407	61,61
877,579	-10,07
877,752	57,51
877,924	63,66
878,097	82,09
878,269	4,27
878,442	39,08
878,614	20,65
878,786	-40,79
878,959	10,41
879,131	16,55
879,303	96,43
879,476	-26,45
879,648	53,42
879,82	61,61
879,993	16,55
880,165	141,48
880,337	28,84
880,509	53,42
880,681	20,65
880,854	-1,88
881,026	49,32
881,198	53,42
881,37	94,38
881,542	84,14
881,714	16,55
881,886	61,61
882,058	69,8
882,23	32,94
882,402	77,99
882,574	34,99
882,746	57,51
882,918	-53,08
883,09	61,61
883,262	24,75
883,434	12,46
883,606	108,71
883,778	4,27
883,95	14,51
884,122	59,56
884,293	49,32
884,465	0,17
884,637	55,47
884,809	8,36
884,98	-28,5
885,152	69,8
885,324	-3,93
885,496	-3,93
885,667	116,9
885,839	12,46
886,011	53,42
886,182	28,84
886,354	92,33
886,525	32,94
886,697	-8,02
886,869	69,8
887,04	51,37
887,212	4,27
887,383	20,65
887,555	-46,93
887,726	2,22
887,897	112,81
888,069	8,36
888,24	57,51
888,412	18,6
888,583	2,22
888,754	116,9
888,926	55,47
889,097	22,7
889,268	10,41
889,44	41,13
889,611	47,27
889,782	6,31
889,953	-8,02
890,125	-5,97
890,296	34,99
890,467	51,37
890,638	4,27
890,809	45,23
890,98	-38,74
891,151	39,08
891,323	-12,12
891,494	20,65
891,665	67,75
891,836	41,13
892,007	57,51
892,178	59,56
892,349	-63,32
892,52	-24,4
892,691	-20,31
892,862	84,14
893,032	77,99
893,203	18,6
893,374	45,23
893,545	61,61
893,716	0,17
893,887	49,32
894,057	20,65
894,228	26,79
894,399	28,84
894,57	-24,4
894,74	4,27
894,911	53,42
895,082	6,31
895,253	37,03
895,423	-48,98
895,594	65,71
895,764	24,75
895,935	53,42
896,106	69,8
896,276	41,13
896,447	16,55
896,617	-3,93
896,788	10,41
896,958	-12,12
897,129	-12,12
897,299	-20,31
897,47	20,65
897,64	100,52
897,81	8,36
897,981	16,55
898,151	-26,45
898,322	18,6
898,492	-10,07
898,662	55,47
898,832	-10,07
899,003	65,71
899,173	41,13
899,343	55,47
899,513	37,03
