Data from sun_USB4F104151__1__16-40-00-336.txt Node

Date: Thu Mar 07 16:40:00 EST 2024
User: lauri
Spectrometer: USB4F10415
Trigger mode: 4
Integration Time (sec): 2,000000E-3
Scans to average: 1
Electric dark correction enabled: true
Nonlinearity correction enabled: false
Boxcar width: 0
XAxis mode: Wavelengths
Number of Pixels in Spectrum: 3648
>>>>>Begin Spectral Data<<<<<
178,204	16,21
178,424	16,21
178,644	16,21
178,864	24,4
179,084	26,45
179,304	18,26
179,524	16,21
179,744	-30,89
179,964	-41,13
180,184	-6,31
180,404	100,18
180,624	-24,75
180,844	-75,95
181,064	44,88
181,283	-34,99
181,503	48,98
181,723	-14,51
181,943	12,12
182,163	-6,31
182,383	34,64
182,602	61,27
182,822	36,69
183,042	-18,6
183,262	77,65
183,482	22,36
183,701	22,36
183,921	-90,28
184,141	-2,22
184,361	1,88
184,58	-45,23
184,8	34,64
185,02	-8,36
185,239	8,02
185,459	-0,17
185,679	-22,7
185,898	-49,32
186,118	32,6
186,338	3,93
186,557	3,93
186,777	18,26
186,997	-69,8
187,216	-34,99
187,436	-4,27
187,655	-4,27
187,875	-2,22
188,095	-18,6
188,314	98,13
188,534	-24,75
188,753	36,69
188,973	-20,65
189,192	-20,65
189,412	-0,17
189,631	44,88
189,851	-6,31
190,07	1,88
190,29	-20,65
190,509	57,17
190,729	53,08
190,948	18,26
191,168	-16,55
191,387	5,97
191,607	8,02
191,826	-51,37
192,045	-28,84
192,265	-34,99
192,484	59,22
192,704	-0,17
192,923	-6,31
193,142	-6,31
193,362	40,79
193,581	-6,31
193,8	24,4
194,02	-20,65
194,239	1,88
194,458	3,93
194,678	-53,42
194,897	-37,03
195,116	48,98
195,335	20,31
195,555	-8,36
195,774	114,52
195,993	-41,13
196,212	65,36
196,432	-43,18
196,651	20,31
196,87	44,88
197,089	-41,13
197,308	-2,22
197,528	48,98
197,747	22,36
197,966	-34,99
198,185	-30,89
198,404	-96,43
198,623	-4,27
198,842	18,26
199,062	36,69
199,281	59,22
199,5	12,12
199,719	-14,51
199,938	20,31
200,157	32,6
200,376	24,4
200,595	55,12
200,814	-32,94
201,033	28,5
201,252	32,6
201,471	42,84
201,69	-51,37
201,909	65,36
202,128	40,79
202,347	75,6
202,566	20,31
202,785	-82,09
203,004	-12,46
203,223	-28,84
203,442	-43,18
203,661	-20,65
203,879	63,32
204,098	-8,36
204,317	-30,89
204,536	22,36
204,755	-80,04
204,974	-39,08
205,193	28,5
205,411	36,69
205,63	44,88
205,849	36,69
206,068	1,88
206,287	22,36
206,505	-49,32
206,724	59,22
206,943	-59,56
207,162	53,08
207,381	-53,42
207,599	8,02
207,818	1,88
208,037	73,56
208,255	20,31
208,474	51,03
208,693	24,4
208,911	46,93
209,13	-0,17
209,349	59,22
209,567	-30,89
209,786	48,98
210,005	42,84
210,223	53,08
210,442	59,22
210,661	18,26
210,879	8,02
211,098	34,64
211,316	-2,22
211,535	38,74
211,753	-57,51
211,972	-47,27
212,191	3,93
212,409	16,21
212,628	36,69
212,846	12,12
213,065	-26,79
213,283	32,6
213,502	5,97
213,72	-28,84
213,938	36,69
214,157	-45,23
214,375	-55,47
214,594	20,31
214,812	44,88
215,031	22,36
215,249	38,74
215,467	36,69
215,686	28,5
215,904	5,97
216,122	-4,27
216,341	1,88
216,559	-22,7
216,778	-22,7
216,996	16,21
217,214	-12,46
217,432	-30,89
217,651	36,69
217,869	57,17
218,087	40,79
218,306	18,26
218,524	28,5
218,742	67,41
218,96	-4,27
219,179	12,12
219,397	44,88
219,615	38,74
219,833	5,97
220,051	10,07
220,27	-49,32
220,488	-6,31
220,706	-12,46
220,924	128,85
221,142	-80,04
221,36	28,5
221,578	69,46
221,796	-2,22
222,015	26,45
222,233	12,12
222,451	-6,31
222,669	63,32
222,887	26,45
223,105	-45,23
223,323	18,26
223,541	14,17
223,759	-22,7
223,977	-34,99
224,195	-6,31
224,413	3,93
224,631	20,31
224,849	-20,65
225,067	-4,27
225,285	63,32
225,503	-41,13
225,721	34,64
225,939	48,98
226,157	36,69
226,375	1,88
226,592	34,64
226,81	59,22
227,028	12,12
227,246	38,74
227,464	36,69
227,682	32,6
227,9	-37,03
228,117	28,5
228,335	26,45
228,553	10,07
228,771	-57,51
228,989	-16,55
229,206	-96,43
229,424	20,31
229,642	1,88
229,86	1,88
230,077	-30,89
230,295	-6,31
230,513	16,21
230,731	-26,79
230,948	-20,65
231,166	38,74
231,384	12,12
231,601	-12,46
231,819	8,02
232,037	42,84
232,254	26,45
232,472	-6,31
232,689	22,36
232,907	36,69
233,125	-57,51
233,342	42,84
233,56	20,31
233,777	-6,31
233,995	61,27
234,213	22,36
234,43	-2,22
234,648	14,17
234,865	-22,7
235,083	-26,79
235,3	-6,31
235,518	20,31
235,735	69,46
235,953	-4,27
236,17	-39,08
236,388	32,6
236,605	-28,84
236,822	20,31
237,04	-0,17
237,257	-10,41
237,475	5,97
237,692	-14,51
237,909	-2,22
238,127	-0,17
238,344	3,93
238,562	18,26
238,779	81,75
238,996	71,51
239,214	1,88
239,431	-43,18
239,648	61,27
239,865	44,88
240,083	-80,04
240,3	26,45
240,517	24,4
240,735	-0,17
240,952	3,93
241,169	32,6
241,386	-4,27
241,603	30,55
241,821	-28,84
242,038	-12,46
242,255	16,21
242,472	-22,7
242,689	-37,03
242,907	44,88
243,124	-37,03
243,341	24,4
243,558	-12,46
243,775	-12,46
243,992	30,55
244,209	-18,6
244,426	1,88
244,643	24,4
244,86	18,26
245,078	26,45
245,295	-67,75
245,512	-22,7
245,729	51,03
245,946	-24,75
246,163	18,26
246,38	20,31
246,597	3,93
246,814	53,08
247,031	20,31
247,248	-18,6
247,464	-49,32
247,681	28,5
247,898	20,31
248,115	-26,79
248,332	75,6
248,549	-14,51
248,766	-2,22
248,983	-2,22
249,2	8,02
249,417	-6,31
249,633	-75,95
249,85	59,22
250,067	20,31
250,284	-14,51
250,501	-37,03
250,717	63,32
250,934	28,5
251,151	-34,99
251,368	44,88
251,585	-0,17
251,801	-28,84
252,018	-8,36
252,235	24,4
252,451	-63,66
252,668	-6,31
252,885	63,32
253,102	-22,7
253,318	5,97
253,535	42,84
253,752	10,07
253,968	36,69
254,185	-53,42
254,401	24,4
254,618	12,12
254,835	22,36
255,051	18,26
255,268	16,21
255,484	-0,17
255,701	-16,55
255,917	63,32
256,134	-8,36
256,351	-20,65
256,567	22,36
256,784	-22,7
257	40,79
257,217	-0,17
257,433	-41,13
257,65	-26,79
257,866	-28,84
258,082	91,99
258,299	-4,27
258,515	-22,7
258,732	-6,31
258,948	75,6
259,165	20,31
259,381	-53,42
259,597	57,17
259,814	-26,79
260,03	42,84
260,246	3,93
260,463	-8,36
260,679	42,84
260,895	8,02
261,112	5,97
261,328	-86,19
261,544	67,41
261,761	-4,27
261,977	-28,84
262,193	-6,31
262,409	-12,46
262,626	-39,08
262,842	10,07
263,058	-4,27
263,274	1,88
263,49	-18,6
263,707	28,5
263,923	-20,65
264,139	10,07
264,355	-39,08
264,571	24,4
264,787	-2,22
265,004	24,4
265,22	-0,17
265,436	36,69
265,652	-6,31
265,868	-16,55
266,084	24,4
266,3	36,69
266,516	-51,37
266,732	1,88
266,948	8,02
267,164	-55,47
267,38	10,07
267,596	-28,84
267,812	22,36
268,028	-22,7
268,244	-71,85
268,46	36,69
268,676	-8,36
268,892	-28,84
269,108	-32,94
269,324	-24,75
269,54	-22,7
269,756	22,36
269,972	48,98
270,188	61,27
270,403	12,12
270,619	-12,46
270,835	-16,55
271,051	51,03
271,267	1,88
271,483	28,5
271,698	-18,6
271,914	63,32
272,13	-75,95
272,346	14,17
272,562	3,93
272,777	-4,27
272,993	75,6
273,209	-43,18
273,425	44,88
273,64	14,17
273,856	-10,41
274,072	5,97
274,287	32,6
274,503	69,46
274,719	-0,17
274,934	-10,41
275,15	10,07
275,366	28,5
275,581	-45,23
275,797	51,03
276,012	-45,23
276,228	44,88
276,444	36,69
276,659	20,31
276,875	5,97
277,09	-18,6
277,306	-47,27
277,521	24,4
277,737	20,31
277,952	61,27
278,168	81,75
278,383	22,36
278,599	-4,27
278,814	-16,55
279,03	34,64
279,245	-57,51
279,461	-4,27
279,676	12,12
279,892	30,55
280,107	5,97
280,322	-49,32
280,538	-16,55
280,753	-53,42
280,969	-24,75
281,184	42,84
281,399	10,07
281,615	14,17
281,83	-14,51
282,045	-26,79
282,26	8,02
282,476	-16,55
282,691	3,93
282,906	-43,18
283,122	-37,03
283,337	-14,51
283,552	42,84
283,767	40,79
283,983	-45,23
284,198	-22,7
284,413	-4,27
284,628	-32,94
284,843	8,02
285,058	-49,32
285,274	-16,55
285,489	3,93
285,704	12,12
285,919	-37,03
286,134	-32,94
286,349	-41,13
286,564	30,55
286,779	16,21
286,995	3,93
287,21	-12,46
287,425	8,02
287,64	-4,27
287,855	-32,94
288,07	3,93
288,285	-14,51
288,5	-37,03
288,715	-0,17
288,93	18,26
289,145	34,64
289,36	-24,75
289,575	-12,46
289,79	1,88
290,004	1,88
290,219	-32,94
290,434	18,26
290,649	-34,99
290,864	-43,18
291,079	38,74
291,294	10,07
291,509	-2,22
291,724	61,27
291,938	3,93
292,153	-2,22
292,368	36,69
292,583	1,88
292,798	-24,75
293,012	-0,17
293,227	18,26
293,442	-6,31
293,657	24,4
293,871	44,88
294,086	10,07
294,301	5,97
294,516	-12,46
294,73	40,79
294,945	10,07
295,16	-51,37
295,374	-65,71
295,589	-45,23
295,804	22,36
296,018	-22,7
296,233	-18,6
296,447	51,03
296,662	1,88
296,877	3,93
297,091	-53,42
297,306	3,93
297,52	26,45
297,735	34,64
297,949	-10,41
298,164	22,36
298,378	-0,17
298,593	-16,55
298,807	22,36
299,022	14,17
299,236	40,79
299,451	8,02
299,665	-45,23
299,88	-4,27
300,094	-14,51
300,309	24,4
300,523	-53,42
300,737	16,21
300,952	-34,99
301,166	30,55
301,381	-20,65
301,595	-61,61
301,809	1,88
302,024	-14,51
302,238	-12,46
302,452	48,98
302,667	-24,75
302,881	20,31
303,095	12,12
303,309	-14,51
303,524	51,03
303,738	-24,75
303,952	16,21
304,166	18,26
304,381	42,84
304,595	42,84
304,809	10,07
305,023	-71,85
305,237	-4,27
305,452	-0,17
305,666	34,64
305,88	-14,51
306,094	-2,22
306,308	20,31
306,522	14,17
306,736	22,36
306,95	89,94
307,164	1,88
307,379	46,93
307,593	-12,46
307,807	-12,46
308,021	40,79
308,235	28,5
308,449	14,17
308,663	36,69
308,877	-24,75
309,091	69,46
309,305	-24,75
309,519	-2,22
309,733	34,64
309,947	24,4
310,161	24,4
310,374	59,22
310,588	5,97
310,802	-26,79
311,016	-39,08
311,23	-53,42
311,444	10,07
311,658	-55,47
311,872	28,5
312,085	-39,08
312,299	81,75
312,513	28,5
312,727	-32,94
312,941	-18,6
313,154	-6,31
313,368	-30,89
313,582	22,36
313,796	53,08
314,009	5,97
314,223	-39,08
314,437	77,65
314,651	-37,03
314,864	-26,79
315,078	-75,95
315,292	48,98
315,505	36,69
315,719	14,17
315,933	44,88
316,146	32,6
316,36	10,07
316,573	1,88
316,787	-30,89
317,001	-61,61
317,214	5,97
317,428	3,93
317,641	-43,18
317,855	-30,89
318,068	57,17
318,282	-28,84
318,495	10,07
318,709	8,02
318,922	18,26
319,136	53,08
319,349	20,31
319,563	-2,22
319,776	-37,03
319,99	44,88
320,203	22,36
320,417	-26,79
320,63	-8,36
320,843	-47,27
321,057	8,02
321,27	-16,55
321,483	-24,75
321,697	-24,75
321,91	-12,46
322,124	-4,27
322,337	-16,55
322,55	12,12
322,763	-10,41
322,977	-61,61
323,19	48,98
323,403	57,17
323,617	-63,66
323,83	61,27
324,043	-20,65
324,256	-32,94
324,469	3,93
324,683	-8,36
324,896	-20,65
325,109	57,17
325,322	12,12
325,535	-4,27
325,748	-22,7
325,962	-26,79
326,175	-28,84
326,388	69,46
326,601	-4,27
326,814	16,21
327,027	-18,6
327,24	38,74
327,453	20,31
327,666	-18,6
327,879	79,7
328,092	-12,46
328,305	12,12
328,518	-49,32
328,731	16,21
328,944	87,89
329,157	16,21
329,37	48,98
329,583	-4,27
329,796	5,97
330,009	-80,04
330,222	44,88
330,435	-6,31
330,648	44,88
330,861	-30,89
331,073	94,04
331,286	42,84
331,499	-8,36
331,712	22,36
331,925	57,17
332,138	-30,89
332,35	-0,17
332,563	30,55
332,776	94,04
332,989	-0,17
333,202	-16,55
333,414	-30,89
333,627	-28,84
333,84	36,69
334,053	28,5
334,265	-2,22
334,478	26,45
334,691	-37,03
334,903	38,74
335,116	28,5
335,329	-47,27
335,541	-20,65
335,754	44,88
335,966	42,84
336,179	-28,84
336,392	1,88
336,604	26,45
336,817	1,88
337,029	36,69
337,242	57,17
337,454	1,88
337,667	34,64
337,88	85,84
338,092	42,84
338,305	-12,46
338,517	-14,51
338,729	53,08
338,942	-0,17
339,154	-14,51
339,367	-28,84
339,579	-0,17
339,792	38,74
340,004	-45,23
340,217	67,41
340,429	14,17
340,641	8,02
340,854	36,69
341,066	36,69
341,278	26,45
341,491	-14,51
341,703	-28,84
341,915	67,41
342,128	-32,94
342,34	26,45
342,552	1,88
342,764	-20,65
342,977	-16,55
343,189	-14,51
343,401	20,31
343,613	-22,7
343,826	40,79
344,038	18,26
344,25	-32,94
344,462	34,64
344,674	18,26
344,886	53,08
345,099	10,07
345,311	65,36
345,523	8,02
345,735	46,93
345,947	8,02
346,159	-12,46
346,371	104,28
346,583	-4,27
346,795	-6,31
347,007	42,84
347,219	20,31
347,431	34,64
347,643	10,07
347,855	-37,03
348,067	59,22
348,279	53,08
348,491	100,18
348,703	55,12
348,915	26,45
349,127	-2,22
349,339	69,46
349,551	30,55
349,763	51,03
349,975	40,79
350,187	18,26
350,399	-47,27
350,61	16,21
350,822	-20,65
351,034	24,4
351,246	57,17
351,458	32,6
351,669	61,27
351,881	61,27
352,093	-63,66
352,305	87,89
352,517	-24,75
352,728	-6,31
352,94	-43,18
353,152	-18,6
353,363	36,69
353,575	34,64
353,787	-6,31
353,999	12,12
354,21	12,12
354,422	51,03
354,633	-6,31
354,845	-14,51
355,057	108,37
355,268	24,4
355,48	30,55
355,692	59,22
355,903	51,03
356,115	38,74
356,326	28,5
356,538	-8,36
356,749	26,45
356,961	73,56
357,172	16,21
357,384	-14,51
357,595	-0,17
357,807	-10,41
358,018	44,88
358,23	51,03
358,441	-28,84
358,653	57,17
358,864	-12,46
359,075	-32,94
359,287	14,17
359,498	14,17
359,709	73,56
359,921	-8,36
360,132	-18,6
360,344	-22,7
360,555	-12,46
360,766	40,79
360,977	75,6
361,189	14,17
361,4	89,94
361,611	30,55
361,823	14,17
362,034	-22,7
362,245	44,88
362,456	40,79
362,667	42,84
362,879	30,55
363,09	14,17
363,301	65,36
363,512	67,41
363,723	57,17
363,935	77,65
364,146	36,69
364,357	106,32
364,568	120,66
364,779	30,55
364,99	77,65
365,201	-12,46
365,412	67,41
365,623	67,41
365,834	28,5
366,045	59,22
366,256	106,32
366,467	26,45
366,678	38,74
366,889	5,97
367,1	120,66
367,311	24,4
367,522	-39,08
367,733	94,04
367,944	44,88
368,155	10,07
368,366	36,69
368,577	40,79
368,788	122,71
368,999	36,69
369,209	10,07
369,42	91,99
369,631	96,08
369,842	79,7
370,053	10,07
370,264	108,37
370,474	108,37
370,685	100,18
370,896	20,31
371,107	36,69
371,317	51,03
371,528	155,47
371,739	20,31
371,95	10,07
372,16	-26,79
372,371	106,32
372,582	36,69
372,792	40,79
373,003	36,69
373,214	18,26
373,424	1,88
373,635	59,22
373,846	63,32
374,056	77,65
374,267	96,08
374,477	16,21
374,688	28,5
374,898	51,03
375,109	69,46
375,319	149,33
375,53	106,32
375,74	89,94
375,951	96,08
376,161	163,67
376,372	132,95
376,582	114,52
376,793	169,81
377,003	147,28
377,214	20,31
377,424	110,42
377,635	173,91
377,845	151,38
378,055	59,22
378,266	171,86
378,476	94,04
378,686	153,43
378,897	145,24
379,107	87,89
379,317	118,61
379,528	75,6
379,738	130,9
379,948	53,08
380,158	61,27
380,369	44,88
380,579	38,74
380,789	77,65
380,999	135
381,21	63,32
381,42	42,84
381,63	53,08
381,84	102,23
382,05	57,17
382,261	98,13
382,471	57,17
382,681	48,98
382,891	-45,23
383,101	137,04
383,311	79,7
383,521	42,84
383,731	96,08
383,941	53,08
384,151	112,47
384,361	91,99
384,571	128,85
384,781	116,56
384,991	96,08
385,201	69,46
385,411	157,52
385,621	53,08
385,831	155,47
386,041	132,95
386,251	122,71
386,461	139,09
386,671	75,6
386,881	184,15
387,091	165,71
387,301	159,57
387,511	186,19
387,72	182,1
387,93	206,67
388,14	227,15
388,35	331,6
388,56	374,61
388,769	290,64
388,979	364,37
389,189	315,22
389,399	415,57
389,609	294,74
389,818	321,36
390,028	337,74
390,238	339,79
390,447	245,59
390,657	214,87
390,867	204,63
391,076	85,84
391,286	190,29
391,496	106,32
391,705	157,52
391,915	135
392,125	239,44
392,334	173,91
392,544	261,97
392,753	202,58
392,963	282,45
393,172	292,69
393,382	302,93
393,591	276,31
393,801	311,12
394,01	276,31
394,22	253,78
394,429	315,22
394,639	243,54
394,848	280,4
395,058	231,25
395,267	167,76
395,477	264,02
395,686	317,26
395,895	393,04
396,105	382,8
396,314	587,6
396,524	603,98
396,733	698,19
396,942	821,06
397,152	1046,34
397,361	882,5
397,57	1056,58
397,78	1075,01
397,989	1310,53
398,198	1376,06
398,407	1457,98
398,617	1388,35
398,826	1611,58
399,035	1396,54
399,244	1660,73
399,453	1523,52
399,663	1941,3
399,872	1775,42
400,081	1906,49
400,29	1838,91
400,499	2066,23
400,708	1730,36
400,917	2064,18
401,127	1808,19
401,336	2060,09
401,545	1859,38
401,754	2060,09
401,963	2066,23
402,172	2117,43
402,381	1834,81
402,59	2174,77
402,799	2092,85
403,008	2053,94
403,217	2029,37
403,426	2244,4
403,635	2019,13
403,844	2123,57
404,053	2066,23
404,262	2123,57
404,471	1912,63
404,68	2115,38
404,888	2096,95
405,097	2008,89
405,306	2043,7
405,515	2168,63
405,724	2060,09
405,933	2402,1
406,142	2268,98
406,35	2254,64
406,559	2690,86
406,768	2656,04
406,977	2623,28
407,185	2649,9
407,394	2592,56
407,603	2789,16
407,812	2563,89
408,02	2617,13
408,229	2469,68
408,438	2615,09
408,646	2592,56
408,855	2717,48
409,064	2584,37
409,272	2707,24
409,481	2938,66
409,69	3098,41
409,898	3006,25
410,107	3387,17
410,315	2893,61
410,524	3456,8
410,733	3127,08
410,941	3397,41
411,15	3079,97
411,358	3407,65
411,567	3290,92
411,775	3557,15
411,984	3344,16
412,192	3602,21
412,401	3403,55
412,609	3600,16
412,818	3624,73
413,026	3565,34
413,234	3428,13
413,443	3653,41
413,651	3436,32
413,86	3686,17
414,068	3727,13
414,276	3776,28
414,485	3692,32
414,693	3766,04
414,901	3671,84
415,11	4169,49
415,318	3692,32
415,526	3903,26
415,734	3682,08
415,943	3710,75
416,151	3548,96
416,359	3743,52
416,567	3454,75
416,776	3704,6
416,984	3764
417,192	3931,93
417,4	3596,06
417,608	3694,36
417,817	3614,49
418,025	3813,15
418,233	4017,94
418,441	3815,2
418,649	3749,66
418,857	4284,18
419,065	3870,49
419,273	3929,88
419,481	4079,38
419,689	4417,3
419,897	4304,66
420,105	4409,11
420,313	4089,62
420,521	4060,95
420,729	3829,53
420,937	4185,88
421,145	3995,42
421,353	4253,46
421,561	3952,41
421,769	4335,38
421,977	4462,35
422,185	4196,12
422,393	4364,05
422,601	4558,61
422,809	4247,32
423,017	4362
423,224	4017,94
423,432	4394,77
423,64	4040,47
423,848	4435,73
424,056	4118,29
424,263	4542,22
424,471	4321,04
424,679	4341,52
424,887	4505,36
425,094	4665,1
425,302	4112,15
425,51	4384,53
425,718	4298,52
425,925	4366,1
426,133	4280,08
426,341	4531,98
426,548	4550,42
426,756	4505,36
426,964	4288,28
427,171	4679,44
427,379	4333,33
427,586	4415,25
427,794	4077,34
428,001	4331,28
428,209	3981,08
428,417	3729,18
428,624	3651,36
428,832	3802,91
429,039	3344,16
429,247	3589,92
429,454	3800,86
429,662	4441,87
429,869	3938,07
430,076	4613,9
430,284	4267,8
430,491	4720,4
430,699	5093,13
430,906	5082,89
431,114	4839,18
431,321	5275,4
431,528	5070,6
431,736	5615,36
431,943	5836,54
432,15	5560,06
432,358	5332,74
432,565	5809,92
432,772	5385,99
432,979	5990,14
433,187	5738,24
433,394	6012,67
433,601	6483,7
433,808	6471,41
434,016	6260,47
434,223	6493,94
434,43	7106,28
434,637	6756,08
434,844	7329,51
435,052	7180,01
435,259	6829,81
435,466	7196,39
435,673	6858,48
435,88	7235,3
436,087	7200,49
436,294	7155,43
436,501	6498,03
436,708	6717,17
436,915	6633,2
437,122	6870,76
437,329	6534,9
437,537	6936,3
437,743	6852,33
437,95	6883,05
438,157	6909,68
438,364	7552,74
438,571	7108,33
438,778	7229,16
438,985	7773,92
439,192	7433,96
439,399	7796,45
439,606	7747,3
439,813	8017,63
440,02	8543,95
440,227	8177,37
440,433	8072,92
440,64	8283,86
440,847	8212,18
441,054	8394,45
441,261	8767,18
441,467	8513,24
441,674	8754,9
441,881	8765,14
442,088	9164,49
442,294	8408,79
442,501	8736,46
442,708	8662,74
442,914	8990,41
443,121	9213,64
443,328	8863,44
443,534	9254,6
443,741	8810,19
443,948	8554,19
444,154	8924,88
444,361	8697,55
444,568	8597,2
444,774	8359,64
444,981	8490,71
445,187	8668,88
445,394	8980,17
445,6	8715,98
445,807	9948,86
446,013	9010,89
446,22	9512,64
446,426	9438,92
446,633	9690,82
446,839	9709,25
447,046	9219,78
447,252	9789,12
447,459	9805,5
447,665	9467,59
447,871	10118,84
448,078	10204,86
448,284	9801,41
448,491	10006,2
448,697	10700,47
448,903	10706,61
449,11	10768,05
449,316	10387,13
449,522	10688,18
449,728	10714,8
449,935	10946,22
450,141	10581,68
450,347	10733,23
450,553	10045,12
450,76	10413,75
450,966	10415,8
451,172	10223,29
451,378	10403,51
451,584	10221,24
451,791	10426,04
451,997	10352,31
452,203	10368,7
452,409	10757,81
452,615	10600,12
452,821	10194,62
453,027	10026,68
453,233	10782,38
453,44	10153,66
453,646	10690,23
453,852	10612,4
454,058	11226,79
454,264	10942,13
454,47	11730,59
454,676	11257,51
454,882	11982,49
455,088	11007,66
455,294	11663,01
455,5	11859,62
455,705	11990,69
455,911	11533,99
456,117	11710,11
456,323	11830,94
456,529	11280,04
456,735	11843,23
456,941	11845,28
457,147	11810,47
457,352	11585,19
457,558	11626,15
457,764	11921,06
457,97	11845,28
458,176	12222,11
458,381	12129,95
458,587	12054,17
458,793	12050,08
458,999	12000,93
459,204	13170,32
459,41	13487,75
459,616	12904,08
459,821	13307,53
460,027	13330,06
460,233	13670,02
460,438	13188,75
460,644	13823,62
460,85	13244,04
461,055	13637,25
461,261	13633,16
461,466	13072,01
461,672	12699,28
461,878	14378,62
462,083	13196,94
462,289	13438,6
462,494	13512,33
462,7	13420,17
462,905	12988,05
463,111	13821,57
463,316	13776,52
463,522	13981,31
463,727	14345,85
463,932	14646,9
464,138	14585,46
464,343	14689,91
464,549	14620,28
464,754	15552,1
464,959	15292,01
465,165	15541,86
465,37	15142,51
465,575	15109,74
465,781	15904,35
465,986	16322,14
466,191	15580,78
466,397	16283,23
466,602	15115,89
466,807	16111,2
467,012	16049,76
467,218	16455,26
467,423	16189,02
467,628	17552,97
467,833	18069,06
468,038	17296,97
468,244	16868,95
468,449	17856,07
468,654	17491,53
468,859	17229,39
469,064	17096,27
469,269	16973,39
469,474	17303,12
469,679	18032,19
469,885	17770,05
470,09	18658,87
470,295	18916,92
470,5	18773,56
470,705	19267,12
470,91	19177,01
471,115	19148,34
471,32	20065,83
471,525	19881,51
471,73	19758,63
471,935	20012,58
472,139	20069,92
472,344	19779,11
472,549	20504,09
472,754	20866,58
472,959	20944,41
473,164	20293,15
473,369	20596,25
473,574	21407,25
473,778	21933,57
473,983	21943,81
474,188	22093,32
474,393	21440,01
474,598	21718,54
474,802	21796,36
475,007	22140,42
475,212	22445,57
475,417	22181,38
475,621	22191,62
475,826	23176,69
476,031	23039,48
476,235	23037,43
476,44	23637,48
476,645	23565,81
476,849	24483,3
477,054	24776,16
477,259	24704,48
477,463	24907,23
477,668	24800,73
477,872	25728,46
478,077	25617,87
478,282	25664,97
478,486	25910,73
478,691	26185,16
478,895	26023,37
479,1	26842,56
479,304	26756,54
479,509	26914,23
479,713	26914,23
479,918	27708,85
480,122	27645,36
480,326	28054,95
480,531	28550,56
480,735	28321,19
480,94	28343,72
481,144	29162,9
481,348	28485,03
481,553	29277,59
481,757	28673,44
481,961	29429,14
482,166	29275,54
482,37	30090,63
482,574	29517,2
482,778	29859,21
482,983	29861,26
483,187	29603,22
483,391	29824,4
483,595	29623,7
483,8	28960,16
484,004	28808,61
484,208	28614,05
484,412	27702,7
484,616	27334,07
484,821	27680,17
485,025	26551,74
485,229	27231,67
485,433	26858,94
485,637	28110,25
485,841	28247,46
486,045	28409,25
486,249	29175,19
486,453	29128,09
486,657	29418,9
486,861	30315,91
487,065	29498,77
487,269	30248,33
487,473	30629,25
487,677	30948,73
487,881	31411,57
488,085	31784,3
488,289	32277,86
488,493	32421,22
488,697	32775,52
488,901	32830,82
489,105	33111,39
489,309	33394,01
489,512	33052
489,716	33508,69
489,92	33494,36
490,124	32839,01
490,328	33518,93
490,531	32814,43
490,735	32671,07
490,939	32951,65
491,143	32761,19
491,346	33248,6
491,55	34022,73
491,754	34522,44
491,958	34549,06
492,161	33996,11
492,365	34370,89
492,569	34239,82
492,772	34082,13
492,976	34782,53
493,18	34635,08
493,383	35593,53
493,587	35464,5
493,79	35657,01
493,994	35263,8
494,197	35405,11
494,401	35581,24
494,605	35450,17
494,808	35845,43
495,012	35890,48
495,215	35966,26
495,419	36363,56
495,622	36166,96
495,825	36336,94
496,029	36398,38
496,232	36738,34
496,436	35939,63
496,639	36633,89
496,843	35693,88
497,046	36007,22
497,249	35853,62
497,453	35849,52
497,656	35917,11
497,859	35831,09
498,063	35589,43
498,266	36586,79
498,469	35691,83
498,673	35536,18
498,876	35208,51
499,079	35503,42
499,282	34983,23
499,485	35218,75
499,689	34583,88
499,892	35145,02
500,095	34307,4
500,298	35063,1
500,501	33885,52
500,705	35093,82
500,908	35106,11
501,111	34796,87
501,314	34962,75
501,517	35194,17
501,72	35493,18
501,923	34981,18
502,126	35388,73
502,329	35820,85
502,532	34370,89
502,735	34653,51
502,938	35200,32
503,141	35542,33
503,344	35427,64
503,547	35216,7
503,75	35880,24
503,953	36029,74
504,156	36470,06
504,359	36394,28
504,562	36351,27
504,765	36826,4
504,968	36973,86
505,17	37092,64
505,373	36564,26
505,576	37219,61
505,779	37258,52
505,982	37106,98
506,185	37184,8
506,387	36934,95
506,59	36441,39
506,793	36449,58
506,996	36719,91
507,198	37356,83
507,401	36420,91
507,604	37539,1
507,807	37659,93
508,009	37571,86
508,212	37276,96
508,415	38003,99
508,617	37719,32
508,82	37815,57
509,022	36873,51
509,225	38466,83
509,428	38049,04
509,63	38333,71
509,833	38055,18
510,035	38495,5
510,238	37924,11
510,44	39220,48
510,643	38989,06
510,845	38937,86
511,048	38184,21
511,25	38907,14
511,453	38663,43
511,655	39355,64
511,858	38405,39
512,06	38763,78
512,262	38722,82
512,465	38044,94
512,667	37903,63
512,87	38102,29
513,072	37395,74
513,274	37936,4
513,477	38440,2
513,679	38722,82
513,881	38368,52
514,084	38765,83
514,286	38616,33
514,488	39040,26
514,69	38868,23
514,893	38434,06
515,095	37184,8
515,297	36887,84
515,499	36046,13
515,701	35765,56
515,904	36054,32
516,106	35706,16
516,308	35749,17
516,51	36144,43
516,712	36156,72
516,914	36164,91
517,116	36570,41
517,318	36191,53
517,52	35747,12
517,722	36447,53
517,925	37106,98
518,127	38055,18
518,329	38128,91
518,531	37764,37
518,733	38898,95
518,935	39271,68
519,136	39380,22
519,338	40121,59
519,54	39863,54
519,742	39965,94
519,944	39963,89
520,146	40750,31
520,348	41260,26
520,55	40774,89
520,752	40979,68
520,954	41196,77
521,155	40719,59
521,357	41684,19
521,559	41118,95
521,761	41739,48
521,963	41239,78
522,164	41407,71
522,366	41309,41
522,568	41841,88
522,77	41508,06
522,971	43029,7
523,173	42687,69
523,375	42548,43
523,576	42603,72
523,778	42398,93
523,98	42409,17
524,181	42269,9
524,383	41661,66
524,584	42259,66
524,786	41710,81
524,988	41473,24
525,189	41006,31
525,391	40346,86
525,592	39937,27
525,794	39333,12
525,995	39286,01
526,197	39339,26
526,398	39697,66
526,6	40774,89
526,801	40453,36
527,003	40922,34
527,204	41403,61
527,406	41755,86
527,607	41528,54
527,808	42015,96
528,01	41022,69
528,211	41905,37
528,412	42439,89
528,614	41673,95
528,815	41805,02
529,016	42104,02
529,218	41698,52
529,419	42130,64
529,62	42075,35
529,822	42489,04
530,023	42808,52
530,224	42951,88
530,425	42398,93
530,626	41954,52
530,828	41469,15
531,029	41694,43
531,23	40172,78
531,431	40555,75
531,632	39906,55
531,833	40223,98
532,035	39376,12
532,236	40291,57
532,437	40035,57
532,638	40035,57
532,839	40262,89
533,04	40115,44
533,241	39509,24
533,442	40565,99
533,643	40109,3
533,844	39996,66
534,045	41006,31
534,246	40944,87
534,447	41188,58
534,648	40703,21
534,849	40940,77
535,05	40701,16
535,251	40776,94
535,451	40525,03
535,652	40346,86
535,853	39582,97
536,054	39499
536,255	40336,62
536,456	39494,91
536,657	40498,41
536,857	40117,49
537,058	40117,49
537,259	40428,78
537,46	40277,23
537,66	40209,65
537,861	39949,56
538,062	39281,92
538,263	39499
538,463	38745,35
538,664	39113,98
538,865	38649,1
539,065	38855,94
539,266	37797,14
539,466	38415,63
539,667	37371,16
539,868	38073,62
540,068	37715,22
540,269	37819,67
540,469	38442,25
540,67	38382,86
540,87	38102,29
541,071	37944,59
541,271	37791
541,472	38452,49
541,672	37461,27
541,873	38087,95
542,073	37475,61
542,274	38229,26
542,474	37813,52
542,675	38173,97
542,875	38501,64
543,075	38432,01
543,276	38102,29
543,476	38616,33
543,676	38124,82
543,877	38825,22
544,077	38173,97
544,277	38513,93
544,478	38280,46
544,678	38307,08
544,878	37995,79
545,078	38554,89
545,279	38157,58
545,479	37928,21
545,679	37723,41
545,879	37850,39
546,079	37821,72
546,28	37971,22
546,48	37395,74
546,68	37991,7
546,88	37467,42
547,08	37774,61
547,28	37199,13
547,48	37528,86
547,68	37803,28
547,88	37244,19
548,081	38012,18
548,281	38384,91
548,481	37899,54
548,681	37960,98
548,881	37651,73
549,081	37831,96
549,28	37330,2
549,48	37879,06
549,68	37641,49
549,88	37889,3
550,08	37176,61
550,28	37887,25
550,48	37934,35
550,68	37821,72
550,88	37305,63
551,08	38012,18
551,279	37813,52
551,479	37285,15
551,679	37637,4
551,879	37203,23
552,079	37356,83
552,278	37516,57
552,478	37455,13
552,678	37856,53
552,878	38610,18
553,077	37854,48
553,277	37117,21
553,477	38059,28
553,676	37698,84
553,876	37881,11
554,076	37602,58
554,275	37692,69
554,475	37184,8
554,674	37010,72
554,874	37162,27
555,074	37317,92
555,273	36963,62
555,473	36998,43
555,672	36795,68
555,872	36910,37
556,071	36918,56
556,271	36939,04
556,47	36332,84
556,67	36810,02
556,869	36472,1
557,068	36795,68
557,268	35800,37
557,467	36074,8
557,667	35851,57
557,866	35200,32
558,065	35151,16
558,265	35097,92
558,464	35233,08
558,663	35147,07
558,863	35013,95
559,062	35736,88
559,261	34649,41
559,461	36009,26
559,66	35179,84
559,859	35958,06
560,058	35556,66
560,258	35857,71
560,457	35001,66
560,656	35929,39
560,855	34747,72
561,054	35214,65
561,253	35228,99
561,453	35607,86
561,652	35556,66
561,851	35675,44
562,05	35794,23
562,249	35444,02
562,448	35691,83
562,647	35591,48
562,846	35876,15
563,045	35575,09
563,244	34846,02
563,443	35640,63
563,642	34977,09
563,841	35415,35
564,04	34747,72
564,239	35378,49
564,438	34585,93
564,637	34553,16
564,836	34227,53
565,035	33797,46
565,234	33899,86
565,432	34278,73
565,631	34170,19
565,83	34764,1
566,029	34223,44
566,228	34651,46
566,427	34209,1
566,625	34751,81
566,824	33723,73
567,023	34393,42
567,222	33615,19
567,42	34288,97
567,619	33623,38
567,818	33879,38
568,016	33666,39
568,215	34264,39
568,414	33709,39
568,612	33748,31
568,811	33248,6
569,01	33944,91
569,208	32413,03
569,407	32783,71
569,605	31966,57
569,804	32333,16
570,002	31686
570,201	31999,34
570,4	31686
570,598	31798,64
570,797	32165,23
570,995	32607,59
571,193	32105,84
571,392	32879,97
571,59	32259,43
571,789	32834,91
571,987	32587,11
572,186	32740,71
572,384	32279,91
572,582	32750,95
572,781	32910,69
572,979	32099,69
573,177	32181,61
573,376	32066,92
573,574	31198,59
573,772	32200,04
573,971	32097,64
574,169	31849,84
574,367	31038,84
574,565	31653,23
574,763	31245,69
574,962	31452,53
575,16	31139,19
575,358	31313,27
575,556	31305,08
575,754	31915,37
575,952	31499,64
576,151	31972,72
576,349	31077,76
576,547	30903,68
576,745	31110,52
576,943	30946,69
577,141	30942,59
577,339	31069,56
577,537	30727,55
577,735	31024,51
577,933	30860,67
578,131	31296,89
578,329	30940,54
578,527	30920,06
578,725	31313,27
578,923	31255,93
579,121	31323,51
579,319	32073,07
579,516	32157,03
579,714	31894,89
579,912	31575,41
580,11	31671,67
580,308	31964,53
580,506	32558,44
580,704	32111,98
580,901	33330,52
581,099	33385,82
581,297	33092,96
581,495	33072,48
581,692	34223,44
581,89	33545,56
582,088	34223,44
582,285	33856,85
582,483	33936,72
582,681	34284,87
582,878	34219,34
583,076	33629,52
583,274	34415,94
583,471	33703,25
583,669	33998,16
583,866	34063,69
584,064	34530,63
584,262	34129,23
584,459	34037,07
584,657	33484,12
584,854	33615,19
585,052	32593,25
585,249	33154,4
585,447	33236,31
585,644	33819,99
585,841	33631,57
586,039	33787,22
586,236	33344,86
586,434	33561,94
586,631	33291,61
586,828	33772,88
587,026	33461,59
587,223	33260,89
587,42	32503,14
587,618	32408,93
587,815	31260,02
588,012	30762,37
588,21	30170,5
588,407	30598,53
588,604	29980,04
588,801	30035,34
588,999	29961,61
589,196	30320,01
589,393	30473,6
589,59	30420,36
589,787	30418,31
589,984	30545,28
590,182	30344,58
590,379	30664,07
590,576	30672,26
590,773	30659,97
590,97	31014,27
591,167	31151,48
591,364	30616,96
591,561	31165,82
591,758	31423,86
591,955	31075,71
592,152	31550,84
592,349	32376,17
592,546	31628,66
592,743	31595,89
592,94	31423,86
593,137	31485,3
593,334	31462,77
593,531	31501,68
593,727	30838,14
593,924	30647,68
594,121	30029,2
594,318	30827,9
594,515	30158,22
594,712	30971,26
594,908	30422,41
595,105	30690,69
595,302	30651,78
595,499	31362,42
595,696	31319,42
595,892	31004,03
596,089	31204,73
596,286	31358,33
596,482	31268,22
596,679	31085,95
596,876	31315,32
597,072	30854,53
597,269	31042,94
597,466	30408,07
597,662	30756,22
597,859	31303,03
598,055	30961,02
598,252	30541,19
598,448	30731,65
598,645	30958,97
598,841	30444,93
599,038	30930,3
599,234	30895,49
599,431	30010,76
599,627	30125,45
599,824	30291,34
600,02	29961,61
600,217	30272,9
600,413	29635,99
600,609	30143,88
600,806	29820,3
601,002	30211,46
601,198	29785,49
601,395	29975,95
601,591	29752,72
601,787	30270,86
601,984	29857,17
602,18	30551,43
602,376	29920,65
602,572	30213,51
602,769	29744,53
602,965	30172,55
603,161	30397,83
603,357	30127,5
603,553	30350,73
603,75	30858,62
603,946	30242,18
604,142	30981,5
604,338	30244,23
604,534	30610,82
604,73	30313,86
604,926	30827,9
605,122	30563,71
605,318	30655,87
605,514	30072,2
605,71	30881,15
605,906	30420,36
606,102	30848,38
606,298	31034,75
606,494	31098,23
606,69	30969,21
606,886	31100,28
607,082	31020,41
607,278	31503,73
607,474	30317,96
607,67	31217,02
607,866	30700,93
608,062	31677,81
608,257	31202,68
608,453	30997,88
608,649	30948,73
608,845	31126,91
609,041	30891,39
609,236	30852,48
609,432	30655,87
609,628	31321,46
609,824	30918,01
610,019	31464,82
610,215	31477,11
610,411	31739,25
610,606	31094,14
610,802	32322,92
610,998	31692,15
611,193	31387
611,389	30721,41
611,584	30729,6
611,78	30981,5
611,976	31458,68
612,171	31124,86
612,367	31659,38
612,562	31425,91
612,758	30791,04
612,953	31298,94
613,149	31642,99
613,344	31616,37
613,539	32531,81
613,735	32179,56
613,93	31954,29
614,126	32210,28
614,321	32894,3
614,517	32451,94
614,712	32644,45
614,907	32247,15
615,103	32331,11
615,298	32185,71
615,493	32626,02
615,688	31495,54
615,884	32294,25
616,079	31929,71
616,274	32171,37
616,47	32370,02
616,665	32460,13
616,86	32587,11
617,055	32748,9
617,25	32480,61
617,445	33211,74
617,641	32458,09
617,836	33437,02
618,031	33166,68
618,226	33052
618,421	32685,41
618,616	33856,85
618,811	33336,66
619,006	34080,08
619,201	32982,37
619,396	33437,02
619,591	33047,9
619,786	34002,25
619,981	33281,37
620,176	33707,35
620,371	32918,88
620,566	33340,76
620,761	33056,09
620,956	33326,42
621,151	32384,36
621,346	32845,15
621,541	32171,37
621,735	32922,97
621,93	32402,79
622,125	32435,56
622,32	31874,41
622,515	32478,57
622,709	32845,15
622,904	32673,12
623,099	32064,88
623,294	32071,02
623,488	31360,37
623,683	31651,19
623,878	31067,52
624,072	31241,59
624,267	31073,66
624,462	30852,48
624,656	30348,68
624,851	30866,81
625,046	30856,57
625,24	30614,91
625,435	30655,87
625,629	30576
625,824	30600,58
626,018	30600,58
626,213	30160,27
626,407	29709,71
626,602	28980,64
626,796	28882,33
626,991	28351,91
627,185	27872,68
627,38	27598,26
627,574	27469,23
627,768	27780,53
627,963	28005,8
628,157	28046,76
628,352	28294,57
628,546	27780,53
628,74	27520,43
628,935	26635,71
629,129	27196,85
629,323	26777,02
629,517	27530,67
629,712	27221,43
629,906	27526,58
630,1	27454,9
630,294	27782,57
630,489	27450,8
630,683	27979,18
630,877	27477,43
631,071	27823,53
631,265	28028,33
631,459	27932,08
631,653	27833,77
631,848	28235,17
632,042	27581,87
632,236	28120,49
632,43	27846,06
632,624	28120,49
632,818	27628,98
633,012	28026,28
633,206	28247,46
633,4	28964,25
633,594	28253,61
633,788	28900,76
633,982	28865,95
634,176	28636,58
634,369	29003,16
634,563	29353,37
634,757	28693,92
634,951	29343,13
635,145	28568,99
635,339	29033,88
635,533	28624,29
635,726	29361,56
635,92	28931,48
636,114	29572,5
636,308	29099,42
636,501	29236,63
636,695	29302,17
636,889	29197,72
637,083	28841,37
637,276	29244,82
637,47	29400,47
637,664	29691,28
637,857	29689,23
638,051	29617,55
638,244	29216,15
638,438	29795,73
638,632	29304,21
638,825	29803,92
639,019	28999,07
639,212	29136,28
639,406	28896,67
639,599	28847,52
639,793	29019,55
639,986	28951,96
640,18	28906,91
640,373	28997,02
640,567	28683,68
640,76	28896,67
640,954	28329,38
641,147	28517,79
641,34	29144,47
641,534	29158,81
641,727	29126,04
641,92	29302,17
642,114	28738,97
642,307	29117,85
642,5	28962,2
642,694	29101,47
642,887	28657,06
643,08	29265,3
643,273	29007,26
643,467	28956,06
643,66	28868
643,853	28429,73
644,046	28011,95
644,239	28919,2
644,432	28747,17
644,626	28820,89
644,819	28247,46
645,012	28712,35
645,205	28390,82
645,398	28509,6
645,591	28343,72
645,784	28128,68
645,977	27760,05
646,17	28095,91
646,363	27825,58
646,556	27921,84
646,749	27895,21
646,942	27940,27
647,135	27528,63
647,328	27651,5
647,521	27393,46
647,714	27219,38
647,907	27405,75
648,099	27221,43
648,292	27305,4
648,485	27008,44
648,678	26414,53
648,871	26590,66
649,064	26195,4
649,256	26895,8
649,449	26674,62
649,642	27209,14
649,835	27221,43
650,027	27844,01
650,22	27637,17
650,413	27643,31
650,605	27411,89
650,798	27383,22
650,991	26613,18
651,183	27465,14
651,376	26471,87
651,568	27008,44
651,761	27121,08
651,954	27350,45
652,146	27387,32
652,339	27174,33
652,531	26924,47
652,724	27504,05
652,916	27565,49
653,109	27573,68
653,301	27844,01
653,494	27532,72
653,686	26744,25
653,879	27305,4
654,071	27354,55
654,263	27127,22
654,456	27063,74
654,648	26740,16
654,84	26031,56
655,033	26009,03
655,225	25437,65
655,417	24581,6
655,61	23825,9
655,802	23561,71
655,994	22799,87
656,186	23637,48
656,379	23342,58
656,571	23588,33
656,763	23866,86
656,955	24042,98
657,148	24262,12
657,34	25050,58
657,532	25142,74
657,724	25634,25
657,916	25380,31
658,108	25638,35
658,3	25206,23
658,492	25707,98
658,684	25003,48
658,876	25748,94
659,068	25601,49
659,26	26285,51
659,452	26709,44
659,644	26846,65
659,836	26435,01
660,028	27071,93
660,22	27004,35
660,412	26531,26
660,604	26412,48
660,796	26551,74
660,988	26580,42
661,18	26856,89
661,372	26418,63
661,563	27319,73
661,755	26969,53
661,947	27229,62
662,139	26998,2
662,331	27033,02
662,522	26668,48
662,714	27329,97
662,906	26830,27
663,097	26865,08
663,289	26729,92
663,481	26549,7
663,673	26394,05
663,864	26217,93
664,056	25839,05
664,247	26123,72
664,439	25531,86
664,631	26265,03
664,822	26516,93
665,014	26848,7
665,205	26406,34
665,397	26578,37
665,588	26105,29
665,78	26015,18
665,971	26191,3
666,163	26682,81
666,354	26424,77
666,546	27028,92
666,737	26103,24
666,929	26195,4
667,12	25972,17
667,311	25429,46
667,503	25306,58
667,694	25863,63
667,885	25638,35
668,077	26240,45
668,268	25941,45
668,459	26435,01
668,651	25736,65
668,842	26189,25
669,033	25357,78
669,224	25959,88
669,416	25816,52
669,607	26064,33
669,798	25667,02
669,989	25783,76
670,18	25976,26
670,371	25888,2
670,563	25282
670,754	24919,51
670,945	25138,65
671,136	25611,73
671,327	25490,9
671,518	25359,83
671,709	25208,28
671,9	25734,6
672,091	25712,08
672,282	25529,81
672,473	25425,36
672,664	26054,09
672,855	25175,51
673,046	25531,86
673,237	25501,14
673,428	25347,54
673,619	25234,9
673,809	25335,25
674	25408,98
674,191	25630,16
674,382	24798,68
674,573	24688,09
674,764	24538,59
674,954	24794,59
675,145	25101,78
675,336	25282
675,527	25011,67
675,717	25327,06
675,908	24606,17
676,099	24913,37
676,289	24933,85
676,48	25329,11
676,671	24813,02
676,861	25052,63
677,052	24243,68
677,243	24577,5
677,433	24804,83
677,624	25183,7
677,814	24341,99
678,005	24862,17
678,195	24561,12
678,386	25226,71
678,576	24337,89
678,767	24651,23
678,957	24298,98
679,148	24604,13
679,338	24149,48
679,529	24671,71
679,719	24217,06
679,909	24624,61
680,1	24151,52
680,29	24501,73
680,481	24542,69
680,671	24419,81
680,861	24307,17
681,052	24802,78
681,242	24415,71
681,432	24868,31
681,622	23995,88
681,813	24352,23
682,003	24155,62
682,193	24632,8
682,383	24407,52
682,573	23692,78
682,764	23330,29
682,954	23825,9
683,144	23473,65
683,334	24067,56
683,524	23895,53
683,714	24032,74
683,904	24149,48
684,094	24356,32
684,284	24321,51
684,474	24886,75
684,664	24237,54
684,854	24407,52
685,044	23692,78
685,234	23404,02
685,424	23414,26
685,614	23447,02
685,804	23391,73
685,994	22799,87
686,184	20807,19
686,374	19316,27
686,564	17243,73
686,753	15761
686,943	14446,2
687,133	14239,36
687,323	13878,91
687,513	14317,18
687,702	14583,41
687,892	15179,37
688,082	14886,51
688,272	15349,36
688,461	14794,36
688,651	15023,73
688,841	14761,59
689,03	14810,74
689,22	14726,77
689,41	14933,62
689,599	14667,38
689,789	15541,86
689,979	15494,76
690,168	15959,65
690,358	15963,75
690,547	16645,72
690,737	16895,57
690,926	17509,96
691,116	17452,62
691,305	17962,56
691,495	17974,85
691,684	18224,7
691,874	18931,25
692,063	19101,23
692,252	19164,72
692,442	19447,34
692,631	19187,25
692,82	19568,17
693,01	18910,77
693,199	19379,76
693,388	19371,57
693,578	19711,53
693,767	19645,99
693,956	19719,72
694,146	19549,74
694,335	19516,97
694,524	19658,28
694,713	20311,58
694,902	20530,72
695,092	20618,78
695,281	19914,28
695,47	20442,65
695,659	20704,79
695,848	20506,14
696,037	20493,85
696,226	20401,69
696,415	20592,16
696,604	21339,66
696,793	20579,87
696,982	21671,43
697,171	21575,18
697,36	21526,03
697,549	21403,15
697,738	21550,6
697,927	20631,07
698,116	21347,86
698,305	20635,16
698,494	21030,42
698,683	20471,32
698,872	20792,86
699,061	20409,89
699,25	20510,24
699,438	20704,79
699,627	20543
699,816	20483,61
700,005	20925,97
700,193	20555,29
700,382	20897,3
700,571	20194,85
700,76	20751,9
700,948	20252,19
701,137	19656,23
701,326	19592,75
701,514	19981,86
701,703	19480,11
701,892	19662,38
702,08	19820,07
702,269	20080,16
702,457	19918,37
702,646	19717,67
702,834	19521,07
703,023	19324,46
703,212	20184,61
703,4	20264,48
703,589	20317,73
703,777	21081,62
703,965	20344,35
704,154	20377,12
704,342	20678,17
704,531	20786,71
704,719	20082,21
704,907	20471,32
705,096	20317,73
705,284	20631,07
705,472	20053,54
705,661	20262,43
705,849	20434,46
706,037	20739,61
706,226	20403,74
706,414	20481,56
706,602	20196,9
706,79	20459,04
706,979	20170,27
707,167	20295,2
707,355	19854,89
707,543	19990,05
707,731	20088,35
707,919	20409,89
708,107	20182,56
708,296	20221,47
708,484	20067,88
708,672	20035,11
708,86	19787,3
709,048	20108,83
709,236	19813,93
709,424	20180,51
709,612	20127,27
709,8	20182,56
709,988	19826,21
710,176	20033,06
710,364	19971,62
710,551	19801,64
710,739	19732,01
710,927	20200,99
711,115	19326,51
711,303	19308,08
711,491	19101,23
711,679	19779,11
711,866	19516,97
712,054	20008,48
712,242	18900,53
712,43	19869,22
712,617	19584,55
712,805	19377,71
712,993	19226,16
713,181	18966,07
713,368	18892,34
713,556	19504,68
713,744	19011,12
713,931	20031,01
714,119	19303,98
714,306	19275,31
714,494	18667,06
714,682	19082,8
714,869	18992,69
715,057	19349,04
715,244	18538,04
715,432	19017,27
715,619	18466,36
715,807	18300,48
715,994	18150,98
716,182	17620,55
716,369	17116,75
716,556	17579,59
716,744	16322,14
716,931	15900,26
717,119	15253,1
717,306	15416,94
717,493	14841,46
717,681	15025,78
717,868	14167,68
718,055	14274,17
718,242	13522,57
718,43	13424,26
718,617	12912,27
718,804	12912,27
718,991	12379,8
719,179	12859,03
719,366	12461,72
719,553	12899,98
719,74	12181,15
719,927	12281,5
720,114	11695,78
720,301	12295,83
720,488	12021,41
720,676	12836,5
720,863	12990,1
721,05	13522,57
721,237	13969,02
721,424	14724,72
721,611	15128,17
721,798	15201,9
721,985	14704,24
722,172	15322,73
722,358	14771,83
722,545	15457,9
722,732	14952,05
722,919	14929,52
723,106	14399,1
723,293	14231,16
723,48	13872,77
723,667	13569,67
723,853	13049,49
724,04	13624,97
724,227	13295,24
724,414	13448,84
724,6	13205,13
724,787	13254,28
724,974	13276,81
725,161	13172,36
725,347	12977,81
725,534	13354,63
725,72	12875,41
725,907	13231,76
726,094	13270,67
726,28	13270,67
726,467	12682,9
726,653	13014,67
726,84	12723,86
727,027	12965,52
727,213	12557,97
727,4	12844,69
727,586	12295,83
727,773	12535,45
727,959	12535,45
728,145	13004,43
728,332	12988,05
728,518	12998,29
728,705	12945,04
728,891	12813,97
729,077	12586,65
729,264	12607,12
729,45	12648,08
729,636	13315,72
729,823	13244,04
730,009	13438,6
730,195	12918,42
730,382	13166,22
730,568	12734,1
730,754	12852,88
730,94	12627,6
731,126	13174,41
731,313	12762,77
731,499	13366,92
731,685	13291,15
731,871	13450,89
732,057	13346,44
732,243	13651,59
732,429	13270,67
732,615	14005,89
732,801	14282,36
732,987	14288,51
733,173	14446,2
733,359	14345,85
733,545	14243,45
733,731	14487,16
733,917	14657,14
734,103	15019,63
734,289	15011,44
734,475	14784,12
734,661	14634,61
734,847	14769,78
735,033	14894,71
735,219	15242,86
735,404	15007,34
735,59	15224,43
735,776	14642,81
735,962	15040,11
736,148	14724,72
736,333	14726,77
736,519	14757,49
736,705	14947,95
736,89	14661,24
737,076	14962,29
737,262	14665,33
737,447	15238,76
737,633	14769,78
737,819	14863,99
738,004	14607,99
738,19	14718,58
738,375	14370,43
738,561	14710,39
738,747	14468,73
738,932	14669,43
739,118	14370,43
739,303	14380,67
739,489	14202,49
739,674	14573,17
739,859	14804,6
740,045	14886,51
740,23	14554,74
740,416	14818,93
740,601	14354,04
740,786	14044,8
740,972	13840
741,157	14204,54
741,342	13747,84
741,528	14208,64
741,713	13731,46
741,898	14288,51
742,084	14210,68
742,269	14536,31
742,454	14507,64
742,639	14659,19
742,824	14061,18
743,01	14255,74
743,195	14272,12
743,38	14351,99
743,565	14169,73
743,75	14325,37
743,935	14239,36
744,12	14360,19
744,305	13831,81
744,49	14003,84
744,675	13602,44
744,86	14241,4
745,045	14036,61
745,23	14163,58
745,415	13856,39
745,6	13975,17
745,785	13792,9
745,97	13979,26
746,155	14130,81
746,34	14098,05
746,525	13397,64
746,71	14046,85
746,895	13856,39
747,079	14102,14
747,264	13659,78
747,449	14071,42
747,634	13651,59
747,819	13962,88
748,003	13201,04
748,188	13512,33
748,373	13547,14
748,557	13766,28
748,742	13280,91
748,927	13614,73
749,111	13467,27
749,296	13565,57
749,481	13235,85
749,665	13549,19
749,85	12832,4
750,034	13065,87
750,219	12875,41
750,404	13282,95
750,588	13074,06
750,773	13188,75
750,957	12922,51
751,141	12908,18
751,326	12600,98
751,51	13061,77
751,695	12760,72
751,879	12904,08
752,064	13106,83
752,248	13377,16
752,432	12842,64
752,617	13053,58
752,801	12906,13
752,985	13305,48
753,17	12949,14
753,354	12928,66
753,538	12861,07
753,722	12879,5
753,907	12852,88
754,091	13086,35
754,275	12426,9
754,459	12668,56
754,643	12406,42
754,828	12416,66
755,012	12048,03
755,196	12322,46
755,38	11486,89
755,564	11996,83
755,748	12039,84
755,932	12584,6
756,116	11847,33
756,3	11761,31
756,484	11634,34
756,668	11701,92
756,852	11699,87
757,036	11951,77
757,22	11511,46
757,404	12033,69
757,588	11654,82
757,772	11673,25
757,956	11527,85
758,14	11765,41
758,323	11605,67
758,507	11710,11
758,691	11488,93
758,875	11155,12
759,059	10624,69
759,242	10022,59
759,426	8556,24
759,61	7460,58
759,794	5971,71
759,977	4663,05
760,161	3063,59
760,345	2135,86
760,528	1351,49
760,712	802,63
760,895	501,58
761,079	339,79
761,263	370,51
761,446	278,35
761,63	321,36
761,813	477,01
761,997	493,39
762,18	649,04
762,364	581,45
762,547	509,77
762,731	268,11
762,914	237,39
763,098	143,19
763,281	159,57
763,464	69,46
763,648	126,8
763,831	155,47
764,015	137,04
764,198	221,01
764,381	294,74
764,564	399,18
764,748	491,34
764,931	610,12
765,114	1019,72
765,297	1169,22
765,481	1806,14
765,664	2037,56
765,847	2803,5
766,03	2866,99
766,213	3495,71
766,397	3835,67
766,58	4632,33
766,763	4761,36
766,946	5603,07
767,129	6156,02
767,312	7044,84
767,495	7341,8
767,678	7898,84
767,861	8179,42
768,044	8679,12
768,227	8974,03
768,41	9612,99
768,593	9830,08
768,776	10589,88
768,959	10237,63
769,142	10804,91
769,324	10704,56
769,507	11148,97
769,69	10839,73
769,873	11110,06
770,056	11237,03
770,239	11765,41
770,421	11437,73
770,604	12074,65
770,787	12355,22
770,97	12107,42
771,152	11853,47
771,335	12687
771,518	12398,23
771,7	12414,62
771,883	12261,02
772,066	12076,7
772,248	12273,31
772,431	12838,55
772,613	12967,57
772,796	12947,09
772,978	12807,83
773,161	13065,87
773,343	12684,95
773,526	13176,46
773,708	12498,58
773,891	12873,36
774,073	12787,35
774,256	12945,04
774,438	12732,05
774,621	12621,46
774,803	12600,98
774,985	12789,39
775,168	12600,98
775,35	13196,94
775,532	13221,52
775,715	13508,23
775,897	13178,51
776,079	13358,73
776,261	13397,64
776,444	13772,42
776,626	13250,19
776,808	13176,46
776,99	13012,62
777,173	13211,28
777,355	12770,96
777,537	12977,81
777,719	12764,82
777,901	12797,59
778,083	12658,32
778,265	13092,49
778,447	12746,39
778,629	12947,09
778,811	12725,91
778,993	12859,03
779,175	12963,47
779,357	12994,19
779,539	12947,09
779,721	12963,47
779,903	12445,34
780,085	12557,97
780,267	11839,14
780,449	12344,98
780,631	11724,45
780,812	12256,92
780,994	12277,4
781,176	12668,56
781,358	12535,45
781,54	12660,37
781,721	12654,23
781,903	12273,31
782,085	12160,67
782,267	12369,56
782,448	12127,9
782,63	12680,85
782,812	12076,7
782,993	12107,42
783,175	11816,61
783,357	11587,24
783,538	11384,49
783,72	11640,48
783,901	10995,37
784,083	11261,61
784,264	11026,09
784,446	11630,24
784,627	11110,06
784,809	11267,75
784,99	11210,41
785,172	11366,06
785,353	11161,26
785,535	11194,03
785,716	11005,61
785,897	11257,51
786,079	11077,29
786,26	11196,07
786,441	10933,93
786,623	11101,87
786,804	10868,4
786,985	11161,26
787,167	10890,93
787,348	10862,26
787,529	10903,21
787,71	11026,09
787,891	10389,17
788,073	10479,29
788,254	9801,41
788,435	10077,88
788,616	10239,67
788,797	10456,76
788,978	10131,13
789,159	10170,04
789,34	9608,9
789,522	10024,64
789,703	9455,3
789,884	9772,74
790,065	9727,68
790,246	9733,82
790,427	9572,04
790,607	9715,39
790,788	9230,02
790,969	9658,05
791,15	9176,78
791,331	9342,66
791,512	8863,44
791,693	9287,37
791,874	9117,39
792,054	9449,16
792,235	9244,36
792,416	9369,29
792,597	8781,52
792,778	8726,22
792,958	8709,84
793,139	8734,42
793,32	8472,28
793,5	8744,66
793,681	8355,54
793,862	8603,35
794,042	8654,55
794,223	8898,25
794,404	8498,9
794,584	8838,86
794,765	8310,49
794,945	8521,43
795,126	8101,59
795,306	8378,07
795,487	8203,99
795,667	8361,69
795,848	8462,04
796,028	8525,52
796,209	8386,26
796,389	8640,21
796,57	8206,04
796,75	8441,56
796,93	8165,08
797,111	8240,86
797,291	8300,25
797,471	8371,93
797,652	8040,15
797,832	8316,63
798,012	7794,4
798,192	7964,38
798,373	7909,08
798,553	8152,79
798,733	7911,13
798,913	8064,73
799,093	7921,37
799,274	7939,8
799,454	7669,47
799,634	8052,44
799,814	7450,34
799,994	7730,91
800,174	7548,64
800,354	7806,69
800,534	7433,96
800,714	7556,83
800,894	7575,27
801,074	7726,82
801,254	7497,44
801,434	7677,66
801,614	7687,9
801,794	7739,1
801,974	7218,92
802,154	7288,55
802,334	7106,28
802,514	7409,38
802,693	7163,62
802,873	7200,49
803,053	6975,21
803,233	7177,96
803,413	6713,07
803,592	6768,37
803,772	6706,93
803,952	7018,22
804,131	7071,47
804,311	6850,28
804,491	6799,09
804,67	6936,3
804,85	6721,26
805,03	7036,65
805,209	6823,66
805,389	7048,94
805,568	6547,19
805,748	6864,62
805,928	6491,89
806,107	7081,71
806,287	6760,17
806,466	6997,74
806,646	6768,37
806,825	6921,96
807,004	6625,01
807,184	6670,06
807,363	6383,35
807,543	6504,18
807,722	6231,8
807,901	6321,91
808,081	6156,02
808,26	6405,88
808,439	6139,64
808,619	6305,53
808,798	6125,3
808,977	6354,68
809,156	6092,54
809,336	6328,05
809,515	5758,72
809,694	6141,69
809,873	5949,18
810,052	6160,12
810,231	5807,87
810,411	6057,72
810,59	5615,36
810,769	5680,89
810,948	5670,65
811,127	5865,21
811,306	5680,89
811,485	5746,43
811,664	5590,78
811,843	5785,34
812,022	5689,09
812,201	5723,9
812,38	5447,43
812,559	5693,18
812,737	5406,47
812,916	5623,55
813,095	5216,01
813,274	5498,63
813,453	5076,74
813,632	5058,31
813,811	4445,97
813,989	4509,46
814,168	4261,65
814,347	4507,41
814,526	4136,73
814,704	4198,17
814,883	4073,24
815,062	4220,69
815,24	3837,72
815,419	3804,96
815,598	3442,46
815,776	3479,33
815,955	3462,94
816,133	3688,22
816,312	3342,11
816,49	3327,78
816,669	3280,68
816,847	3018,54
817,026	2993,96
817,204	2979,62
817,383	2815,79
817,561	3313,44
817,74	3036,97
817,918	2979,62
818,097	2821,93
818,275	3227,43
818,453	2936,62
818,632	3088,17
818,81	2895,66
818,988	3024,68
819,167	3002,15
819,345	3159,85
819,523	2973,48
819,701	2993,96
819,879	3028,78
820,058	3067,69
820,236	2887,47
820,414	3325,73
820,592	2934,57
820,77	3239,72
820,948	3151,65
821,127	3475,23
821,305	3571,49
821,483	3845,91
821,661	3786,52
821,839	3974,94
822,017	3612,45
822,195	3655,45
822,373	3448,61
822,551	3460,9
822,729	3147,56
822,907	3247,91
823,085	2744,11
823,262	2524,97
823,44	2037,56
823,618	2152,24
823,796	2006,84
823,974	2217,78
824,152	2170,68
824,329	2228,02
824,507	2395,95
824,685	2885,42
824,863	2959,14
825,04	3315,49
825,218	3188,52
825,396	3559,2
825,574	3368,74
825,751	3370,79
825,929	3469,09
826,107	3419,94
826,284	3241,76
826,462	3323,68
826,639	2989,86
826,817	3227,43
826,994	3229,48
827,172	3485,47
827,349	3315,49
827,527	3499,81
827,704	3192,61
827,882	3094,31
828,059	2666,28
828,237	2830,12
828,414	2488,11
828,591	2715,44
828,769	2447,15
828,946	2547,5
829,124	2352,95
829,301	2633,52
829,478	2463,54
829,655	2744,11
829,833	2658,09
830,01	2615,09
830,187	2582,32
830,364	2760,49
830,542	2492,21
830,719	2627,37
830,896	2408,24
831,073	2590,51
831,25	2543,41
831,427	2572,08
831,604	2445,1
831,782	2639,66
831,959	2369,33
832,136	2502,45
832,313	2469,68
832,49	2447,15
832,667	2244,4
832,844	2516,78
833,021	2395,95
833,198	2400,05
833,374	2348,85
833,551	2426,67
833,728	2379,57
833,905	2496,3
834,082	2527,02
834,259	2756,4
834,436	2309,94
834,612	2608,94
834,789	2361,14
834,966	2723,63
835,143	2418,48
835,319	2758,44
835,496	2645,8
835,673	2735,92
835,85	2524,97
836,026	2717,48
836,203	2307,89
836,38	2551,6
836,556	2373,43
836,733	2574,13
836,909	2352,95
837,086	2639,66
837,262	2567,98
837,439	2817,83
837,616	2617,13
837,792	2723,63
837,968	2666,28
838,145	2854,7
838,321	2649,9
838,498	2441,01
838,674	2357,04
838,851	2400,05
839,027	2283,31
839,203	2651,95
839,38	2449,2
839,556	2641,71
839,732	2438,96
839,909	2598,7
840,085	2363,19
840,261	2561,84
840,437	2254,64
840,614	2559,79
840,79	2232,12
840,966	2514,73
841,142	2461,49
841,318	2705,2
841,494	2494,26
841,671	2740,01
841,847	2426,67
842,023	2574,13
842,199	2246,45
842,375	2367,28
842,551	2285,36
842,727	2518,83
842,903	2336,56
843,079	2486,06
843,255	2080,57
843,431	2258,74
843,607	2084,66
843,783	2182,96
843,959	2252,59
844,134	2283,31
844,31	2053,94
844,486	2164,53
844,662	2053,94
844,838	2326,32
845,013	2094,9
845,189	2137,91
845,365	2129,72
845,541	2129,72
845,716	2047,8
845,892	2092,85
846,068	2000,69
846,244	2170,68
846,419	2084,66
846,595	1943,35
846,77	1738,55
846,946	2170,68
847,122	1929,02
847,297	2015,03
847,473	1965,88
847,648	2094,9
847,824	2023,22
847,999	1900,34
848,175	1959,74
848,35	1863,48
848,526	1720,12
848,701	1793,85
848,876	1632,06
849,052	1865,53
849,227	1683,26
849,403	1754,94
849,578	1615,68
849,753	1615,68
849,929	1601,34
850,104	1437,5
850,279	1240,9
850,454	1271,62
850,63	1191,75
850,805	1238,85
850,98	1228,61
851,155	1335,1
851,33	1294,15
851,505	1431,36
851,681	1322,82
851,856	1517,37
852,031	1437,5
852,206	1498,94
852,381	1359,68
852,556	1654,59
852,731	1468,22
852,906	1601,34
853,081	1558,33
853,256	1445,7
853,431	1457,98
853,606	1623,87
853,781	1146,69
853,956	1345,34
854,131	1187,65
854,305	1146,69
854,48	968,52
854,655	995,14
854,83	782,15
855,005	806,73
855,18	569,16
855,354	798,54
855,529	706,38
855,704	933,7
855,879	937,8
856,053	1212,23
856,228	1050,44
856,403	1208,13
856,577	1079,11
856,752	1158,98
856,926	984,9
857,101	1097,54
857,276	995,14
857,45	1081,16
857,625	976,71
857,799	1042,25
857,974	882,5
858,148	1126,21
858,323	915,27
858,497	1175,36
858,672	902,98
858,846	1093,44
859,02	929,61
859,195	964,42
859,369	859,98
859,543	984,9
859,718	823,11
859,892	970,57
860,066	866,12
860,241	960,33
860,415	763,72
860,589	839,5
860,763	829,26
860,938	804,68
861,112	771,91
861,286	857,93
861,46	902,98
861,634	960,33
861,808	812,87
861,982	909,13
862,157	714,57
862,331	712,52
862,505	730,95
862,679	728,91
862,853	696,14
863,027	798,54
863,201	733
863,375	753,48
863,549	698,19
863,722	806,73
863,896	563,02
864,07	882,5
864,244	773,96
864,418	790,35
864,592	782,15
864,766	671,56
864,939	593,74
865,113	698,19
865,287	696,14
865,461	753,48
865,634	646,99
865,808	706,38
865,982	694,09
866,156	722,76
866,329	610,12
866,503	630,6
866,676	450,38
866,85	495,44
867,024	329,55
867,197	399,18
867,371	292,69
867,544	425,81
867,718	315,22
867,891	290,64
868,065	366,42
868,238	399,18
868,412	405,33
868,585	466,77
868,759	499,53
868,932	466,77
869,105	503,63
869,279	560,97
869,452	479,05
869,625	560,97
869,799	479,05
869,972	397,14
870,145	417,61
870,319	421,71
870,492	491,34
870,665	491,34
870,838	436,05
871,011	446,29
871,185	417,61
871,358	487,25
871,531	343,89
871,704	401,23
871,877	421,71
872,05	427,85
872,223	354,13
872,396	393,04
872,569	337,74
872,742	343,89
872,915	339,79
873,088	331,6
873,261	268,11
873,434	364,37
873,607	339,79
873,78	343,89
873,953	253,78
874,126	368,46
874,299	315,22
874,471	276,31
874,644	327,5
874,817	288,59
874,99	272,21
875,163	360,27
875,335	270,16
875,508	290,64
875,681	286,54
875,853	261,97
876,026	257,87
876,199	208,72
876,371	253,78
876,544	280,4
876,717	270,16
876,889	280,4
877,062	311,12
877,234	280,4
877,407	223,06
877,579	261,97
877,752	239,44
877,924	235,35
878,097	214,87
878,269	280,4
878,442	196,43
878,614	192,34
878,786	188,24
878,959	239,44
879,131	229,2
879,303	266,07
879,476	245,59
879,648	182,1
879,82	190,29
879,993	210,77
880,165	216,91
880,337	253,78
880,509	151,38
880,681	259,92
880,854	184,15
881,026	264,02
881,198	151,38
881,37	108,37
881,542	200,53
881,714	171,86
881,886	149,33
882,058	186,19
882,23	192,34
882,402	182,1
882,574	182,1
882,746	167,76
882,918	184,15
883,09	118,61
883,262	216,91
883,434	128,85
883,606	198,48
883,778	51,03
883,95	169,81
884,122	239,44
884,293	130,9
884,465	180,05
884,637	157,52
884,809	141,14
884,98	145,24
885,152	77,65
885,324	135
885,496	147,28
885,667	194,39
885,839	106,32
886,011	188,24
886,182	196,43
886,354	147,28
886,525	149,33
886,697	89,94
886,869	151,38
887,04	145,24
887,212	124,76
887,383	118,61
887,555	184,15
887,726	135
887,897	178
888,069	118,61
888,24	141,14
888,412	173,91
888,583	143,19
888,754	141,14
888,926	130,9
889,097	124,76
889,268	10,07
889,44	118,61
889,611	100,18
889,782	98,13
889,953	161,62
890,125	155,47
890,296	53,08
890,467	63,32
890,638	59,22
890,809	132,95
890,98	67,41
891,151	120,66
891,323	130,9
891,494	106,32
891,665	83,8
891,836	44,88
892,007	116,56
892,178	67,41
892,349	12,12
892,52	81,75
892,691	42,84
892,862	108,37
893,032	114,52
893,203	57,17
893,374	104,28
893,545	26,45
893,716	-8,36
893,887	65,36
894,057	46,93
894,228	40,79
894,399	110,42
894,57	83,8
894,74	3,93
894,911	112,47
895,082	24,4
895,253	46,93
895,423	48,98
895,594	126,8
895,764	18,26
895,935	44,88
896,106	94,04
896,276	118,61
896,447	18,26
896,617	79,7
896,788	22,36
896,958	30,55
897,129	85,84
897,299	81,75
897,47	18,26
897,64	40,79
897,81	1,88
897,981	-43,18
898,151	32,6
898,322	116,56
898,492	-53,42
898,662	34,64
898,832	55,12
899,003	-22,7
899,173	61,27
899,343	57,17
899,513	16,21
