Data from sun_USB4F104151__2__16-40-00-356.txt Node

Date: Thu Mar 07 16:40:00 EST 2024
User: lauri
Spectrometer: USB4F10415
Trigger mode: 4
Integration Time (sec): 2,000000E-3
Scans to average: 1
Electric dark correction enabled: true
Nonlinearity correction enabled: false
Boxcar width: 0
XAxis mode: Wavelengths
Number of Pixels in Spectrum: 3648
>>>>>Begin Spectral Data<<<<<
178,204	49,49
178,424	49,49
178,644	49,49
178,864	20,82
179,084	24,92
179,304	-22,19
179,524	-16,04
179,744	-11,95
179,964	57,68
180,184	-93,87
180,404	0,34
180,624	63,83
180,844	-63,15
181,064	6,49
181,283	69,97
181,503	4,44
181,723	4,44
181,943	-7,85
182,163	39,25
182,383	26,96
182,602	47,44
182,822	37,2
183,042	-26,28
183,262	4,44
183,482	-11,95
183,701	-1,71
183,921	45,4
184,141	102,74
184,361	-9,9
184,58	14,68
184,8	47,44
185,02	-16,04
185,239	31,06
185,459	14,68
185,679	2,39
185,898	10,58
186,118	63,83
186,338	0,34
186,557	6,49
186,777	16,73
186,997	2,39
187,216	22,87
187,436	-18,09
187,655	26,96
187,875	10,58
188,095	100,69
188,314	47,44
188,534	33,11
188,753	45,4
188,973	18,77
189,192	8,53
189,412	88,4
189,631	-38,57
189,851	41,3
190,07	-22,19
190,29	10,58
190,509	-1,71
190,729	22,87
190,948	-13,99
191,168	61,78
191,387	51,54
191,607	86,36
191,826	-11,95
192,045	-57
192,265	84,31
192,484	24,92
192,704	-32,43
192,923	61,78
193,142	55,64
193,362	35,16
193,581	67,92
193,8	14,68
194,02	29,01
194,239	-22,19
194,458	-26,28
194,678	-3,75
194,897	-7,85
195,116	12,63
195,335	88,4
195,555	12,63
195,774	61,78
195,993	-16,04
196,212	78,16
196,432	10,58
196,651	24,92
196,87	39,25
197,089	-9,9
197,308	-13,99
197,528	-24,23
197,747	16,73
197,966	12,63
198,185	2,39
198,404	88,4
198,623	-38,57
198,842	88,4
199,062	29,01
199,281	-11,95
199,5	8,53
199,719	82,26
199,938	74,07
200,157	29,01
200,376	49,49
200,595	43,35
200,814	-26,28
201,033	-30,38
201,252	74,07
201,471	-22,19
201,69	63,83
201,909	-26,28
202,128	29,01
202,347	31,06
202,566	-61,1
202,785	35,16
203,004	88,4
203,223	18,77
203,442	24,92
203,661	0,34
203,879	39,25
204,098	-16,04
204,317	2,39
204,536	49,49
204,755	14,68
204,974	39,25
205,193	41,3
205,411	2,39
205,63	33,11
205,849	-7,85
206,068	4,44
206,287	59,73
206,505	26,96
206,724	8,53
206,943	-1,71
207,162	37,2
207,381	37,2
207,599	53,59
207,818	22,87
208,037	6,49
208,255	82,26
208,474	14,68
208,693	33,11
208,911	53,59
209,13	16,73
209,349	47,44
209,567	-36,52
209,786	86,36
210,005	14,68
210,223	55,64
210,442	69,97
210,661	10,58
210,879	63,83
211,098	78,16
211,316	-7,85
211,535	-16,04
211,753	10,58
211,972	24,92
212,191	-32,43
212,409	-7,85
212,628	16,73
212,846	39,25
213,065	22,87
213,283	86,36
213,502	-34,47
213,72	-7,85
213,938	-75,43
214,157	29,01
214,375	16,73
214,594	-28,33
214,812	-24,23
215,031	57,68
215,249	57,68
215,467	29,01
215,686	-24,23
215,904	18,77
216,122	6,49
216,341	55,64
216,559	16,73
216,778	67,92
216,996	8,53
217,214	-16,04
217,432	-13,99
217,651	57,68
217,869	-16,04
218,087	29,01
218,306	59,73
218,524	35,16
218,742	59,73
218,96	10,58
219,179	39,25
219,397	33,11
219,615	31,06
219,833	6,49
220,051	12,63
220,27	47,44
220,488	22,87
220,706	-16,04
220,924	-20,14
221,142	55,64
221,36	-57
221,578	39,25
221,796	-20,14
222,015	-9,9
222,233	-46,76
222,451	41,3
222,669	45,4
222,887	-16,04
223,105	31,06
223,323	20,82
223,541	-7,85
223,759	-13,99
223,977	39,25
224,195	-57
224,413	4,44
224,631	20,82
224,849	33,11
225,067	53,59
225,285	96,6
225,503	98,64
225,721	-22,19
225,939	33,11
226,157	41,3
226,375	-5,8
226,592	22,87
226,81	86,36
227,028	18,77
227,246	55,64
227,464	20,82
227,682	-24,23
227,9	10,58
228,117	72,02
228,335	88,4
228,553	41,3
228,771	-7,85
228,989	33,11
229,206	102,74
229,424	-102,06
229,642	-3,75
229,86	12,63
230,077	-42,67
230,295	76,12
230,513	6,49
230,731	51,54
230,948	80,21
231,166	-91,82
231,384	41,3
231,601	33,11
231,819	-9,9
232,037	22,87
232,254	45,4
232,472	49,49
232,689	-1,71
232,907	-67,24
233,125	29,01
233,342	67,92
233,56	0,34
233,777	-36,52
233,995	-20,14
234,213	-3,75
234,43	16,73
234,648	10,58
234,865	74,07
235,083	90,45
235,3	39,25
235,518	-9,9
235,735	20,82
235,953	12,63
236,17	20,82
236,388	37,2
236,605	31,06
236,822	-5,8
237,04	10,58
237,257	24,92
237,475	47,44
237,692	-22,19
237,909	-36,52
238,127	61,78
238,344	-13,99
238,562	-3,75
238,779	39,25
238,996	39,25
239,214	-44,71
239,431	-44,71
239,648	55,64
239,865	26,96
240,083	37,2
240,3	-26,28
240,517	-28,33
240,735	2,39
240,952	-1,71
241,169	74,07
241,386	-54,95
241,603	82,26
241,821	2,39
242,038	49,49
242,255	12,63
242,472	-9,9
242,689	61,78
242,907	18,77
243,124	-3,75
243,341	39,25
243,558	-11,95
243,775	57,68
243,992	8,53
244,209	-16,04
244,426	4,44
244,643	57,68
244,86	-9,9
245,078	55,64
245,295	47,44
245,512	14,68
245,729	137,56
245,946	121,17
246,163	-9,9
246,38	8,53
246,597	-34,47
246,814	-73,39
247,031	51,54
247,248	22,87
247,464	20,82
247,681	53,59
247,898	-5,8
248,115	-7,85
248,332	6,49
248,549	63,83
248,766	-5,8
248,983	-20,14
249,2	33,11
249,417	57,68
249,633	16,73
249,85	82,26
250,067	12,63
250,284	-69,29
250,501	-9,9
250,717	-32,43
250,934	-28,33
251,151	12,63
251,368	41,3
251,585	29,01
251,801	-11,95
252,018	74,07
252,235	-5,8
252,451	18,77
252,668	20,82
252,885	61,78
253,102	-30,38
253,318	10,58
253,535	20,82
253,752	24,92
253,968	-22,19
254,185	47,44
254,401	14,68
254,618	-50,86
254,835	0,34
255,051	20,82
255,268	33,11
255,484	53,59
255,701	74,07
255,917	39,25
256,134	14,68
256,351	104,79
256,567	26,96
256,784	106,84
257	4,44
257,217	-18,09
257,433	106,84
257,65	53,59
257,866	65,88
258,082	29,01
258,299	14,68
258,515	59,73
258,732	10,58
258,948	82,26
259,165	22,87
259,381	51,54
259,597	14,68
259,814	16,73
260,03	8,53
260,246	35,16
260,463	-54,95
260,679	2,39
260,895	0,34
261,112	72,02
261,328	-7,85
261,544	16,73
261,761	-16,04
261,977	43,35
262,193	-18,09
262,409	49,49
262,626	2,39
262,842	57,68
263,058	-11,95
263,274	16,73
263,49	43,35
263,707	0,34
263,923	51,54
264,139	4,44
264,355	53,59
264,571	-87,72
264,787	16,73
265,004	59,73
265,22	8,53
265,436	0,34
265,652	-7,85
265,868	49,49
266,084	35,16
266,3	-18,09
266,516	67,92
266,732	16,73
266,948	82,26
267,164	86,36
267,38	45,4
267,596	-7,85
267,812	-1,71
268,028	-1,71
268,244	22,87
268,46	74,07
268,676	6,49
268,892	-50,86
269,108	84,31
269,324	12,63
269,54	29,01
269,756	14,68
269,972	29,01
270,188	51,54
270,403	22,87
270,619	6,49
270,835	14,68
271,051	49,49
271,267	4,44
271,483	33,11
271,698	12,63
271,914	-7,85
272,13	-5,8
272,346	-42,67
272,562	-100,01
272,777	6,49
272,993	45,4
273,209	55,64
273,425	-5,8
273,64	0,34
273,856	14,68
274,072	55,64
274,287	33,11
274,503	8,53
274,719	-5,8
274,934	12,63
275,15	-20,14
275,366	47,44
275,581	57,68
275,797	-26,28
276,012	6,49
276,228	45,4
276,444	31,06
276,659	2,39
276,875	-7,85
277,09	39,25
277,306	37,2
277,521	-26,28
277,737	47,44
277,952	80,21
278,168	-5,8
278,383	0,34
278,599	31,06
278,814	-44,71
279,03	20,82
279,245	-13,99
279,461	49,49
279,676	24,92
279,892	-20,14
280,107	-28,33
280,322	22,87
280,538	33,11
280,753	51,54
280,969	20,82
281,184	65,88
281,399	6,49
281,615	8,53
281,83	-26,28
282,045	-1,71
282,26	35,16
282,476	20,82
282,691	20,82
282,906	22,87
283,122	6,49
283,337	-28,33
283,552	22,87
283,767	8,53
283,983	-5,8
284,198	24,92
284,413	112,98
284,628	49,49
284,843	35,16
285,058	-34,47
285,274	-67,24
285,489	-28,33
285,704	-36,52
285,919	53,59
286,134	-3,75
286,349	37,2
286,564	55,64
286,779	33,11
286,995	-13,99
287,21	29,01
287,425	-69,29
287,64	26,96
287,855	67,92
288,07	-9,9
288,285	31,06
288,5	33,11
288,715	59,73
288,93	-46,76
289,145	84,31
289,36	-59,05
289,575	14,68
289,79	12,63
290,004	33,11
290,219	-7,85
290,434	33,11
290,649	8,53
290,864	0,34
291,079	84,31
291,294	-26,28
291,509	12,63
291,724	119,12
291,938	14,68
292,153	39,25
292,368	-22,19
292,583	39,25
292,798	98,64
293,012	33,11
293,227	0,34
293,442	72,02
293,657	43,35
293,871	12,63
294,086	6,49
294,301	39,25
294,516	-1,71
294,73	39,25
294,945	41,3
295,16	12,63
295,374	-16,04
295,589	82,26
295,804	-63,15
296,018	31,06
296,233	-40,62
296,447	10,58
296,662	43,35
296,877	-34,47
297,091	20,82
297,306	12,63
297,52	16,73
297,735	20,82
297,949	22,87
298,164	8,53
298,378	2,39
298,593	41,3
298,807	37,2
299,022	-9,9
299,236	16,73
299,451	43,35
299,665	26,96
299,88	33,11
300,094	31,06
300,309	16,73
300,523	24,92
300,737	39,25
300,952	20,82
301,166	-16,04
301,381	31,06
301,595	-38,57
301,809	55,64
302,024	-42,67
302,238	26,96
302,452	53,59
302,667	0,34
302,881	8,53
303,095	-9,9
303,309	6,49
303,524	33,11
303,738	86,36
303,952	-5,8
304,166	16,73
304,381	31,06
304,595	24,92
304,809	41,3
305,023	8,53
305,237	-7,85
305,452	-1,71
305,666	0,34
305,88	20,82
306,094	31,06
306,308	10,58
306,522	39,25
306,736	55,64
306,95	67,92
307,164	24,92
307,379	-36,52
307,593	57,68
307,807	49,49
308,021	16,73
308,235	24,92
308,449	31,06
308,663	29,01
308,877	47,44
309,091	-30,38
309,305	14,68
309,519	67,92
309,733	22,87
309,947	74,07
310,161	8,53
310,374	6,49
310,588	100,69
310,802	80,21
311,016	47,44
311,23	45,4
311,444	-67,24
311,658	14,68
311,872	-89,77
312,085	53,59
312,299	45,4
312,513	6,49
312,727	24,92
312,941	51,54
313,154	16,73
313,368	10,58
313,582	16,73
313,796	41,3
314,009	-9,9
314,223	-5,8
314,437	39,25
314,651	0,34
314,864	-30,38
315,078	-46,76
315,292	63,83
315,505	-36,52
315,719	-61,1
315,933	29,01
316,146	-5,8
316,36	35,16
316,573	-46,76
316,787	57,68
317,001	59,73
317,214	47,44
317,428	8,53
317,641	78,16
317,855	4,44
318,068	16,73
318,282	-13,99
318,495	-9,9
318,709	-65,19
318,922	-1,71
319,136	31,06
319,349	0,34
319,563	-18,09
319,776	49,49
319,99	41,3
320,203	-5,8
320,417	22,87
320,63	29,01
320,843	12,63
321,057	72,02
321,27	39,25
321,483	-67,24
321,697	78,16
321,91	22,87
322,124	-7,85
322,337	49,49
322,55	39,25
322,763	20,82
322,977	41,3
323,19	29,01
323,403	20,82
323,617	-7,85
323,83	20,82
324,043	-13,99
324,256	0,34
324,469	55,64
324,683	33,11
324,896	14,68
325,109	-28,33
325,322	16,73
325,535	10,58
325,748	55,64
325,962	98,64
326,175	63,83
326,388	-1,71
326,601	10,58
326,814	43,35
327,027	47,44
327,24	-32,43
327,453	96,6
327,666	0,34
327,879	43,35
328,092	6,49
328,305	-5,8
328,518	49,49
328,731	24,92
328,944	61,78
329,157	37,2
329,37	55,64
329,583	16,73
329,796	-11,95
330,009	55,64
330,222	31,06
330,435	39,25
330,648	43,35
330,861	45,4
331,073	82,26
331,286	65,88
331,499	-1,71
331,712	10,58
331,925	-32,43
332,138	-5,8
332,35	76,12
332,563	37,2
332,776	35,16
332,989	35,16
333,202	-3,75
333,414	4,44
333,627	22,87
333,84	72,02
334,053	80,21
334,265	55,64
334,478	-18,09
334,691	-59,05
334,903	37,2
335,116	0,34
335,329	43,35
335,541	-16,04
335,754	76,12
335,966	45,4
336,179	39,25
336,392	14,68
336,604	-40,62
336,817	43,35
337,029	0,34
337,242	14,68
337,454	-40,62
337,667	49,49
337,88	-9,9
338,092	-3,75
338,305	31,06
338,517	69,97
338,729	29,01
338,942	-16,04
339,154	22,87
339,367	45,4
339,579	33,11
339,792	26,96
340,004	96,6
340,217	72,02
340,429	41,3
340,641	123,22
340,854	76,12
341,066	51,54
341,278	26,96
341,491	39,25
341,703	12,63
341,915	-32,43
342,128	67,92
342,34	37,2
342,552	8,53
342,764	4,44
342,977	39,25
343,189	72,02
343,401	53,59
343,613	-1,71
343,826	16,73
344,038	-9,9
344,25	76,12
344,462	37,2
344,674	-1,71
344,886	10,58
345,099	20,82
345,311	-32,43
345,523	37,2
345,735	2,39
345,947	33,11
346,159	-44,71
346,371	41,3
346,583	78,16
346,795	-9,9
347,007	145,75
347,219	31,06
347,431	18,77
347,643	100,69
347,855	80,21
348,067	72,02
348,279	8,53
348,491	24,92
348,703	-1,71
348,915	106,84
349,127	80,21
349,339	2,39
349,551	14,68
349,763	41,3
349,975	-11,95
350,187	37,2
350,399	-30,38
350,61	10,58
350,822	51,54
351,034	10,58
351,246	80,21
351,458	90,45
351,669	84,31
351,881	29,01
352,093	45,4
352,305	31,06
352,517	0,34
352,728	45,4
352,94	96,6
353,152	-40,62
353,363	35,16
353,575	-1,71
353,787	24,92
353,999	49,49
354,21	24,92
354,422	0,34
354,633	33,11
354,845	94,55
355,057	33,11
355,268	65,88
355,48	24,92
355,692	80,21
355,903	-34,47
356,115	8,53
356,326	65,88
356,538	57,68
356,749	-22,19
356,961	55,64
357,172	33,11
357,384	39,25
357,595	8,53
357,807	82,26
358,018	-11,95
358,23	31,06
358,441	92,5
358,653	76,12
358,864	72,02
359,075	24,92
359,287	12,63
359,498	47,44
359,709	78,16
359,921	78,16
360,132	80,21
360,344	14,68
360,555	24,92
360,766	39,25
360,977	16,73
361,189	24,92
361,4	41,3
361,611	47,44
361,823	12,63
362,034	31,06
362,245	55,64
362,456	74,07
362,667	33,11
362,879	59,73
363,09	31,06
363,301	47,44
363,512	65,88
363,723	65,88
363,935	94,55
364,146	57,68
364,357	69,97
364,568	76,12
364,779	151,89
364,99	84,31
365,201	67,92
365,412	53,59
365,623	80,21
365,834	96,6
366,045	59,73
366,256	69,97
366,467	74,07
366,678	92,5
366,889	80,21
367,1	6,49
367,311	88,4
367,522	88,4
367,733	82,26
367,944	82,26
368,155	61,78
368,366	74,07
368,577	78,16
368,788	110,93
368,999	49,49
369,209	65,88
369,42	94,55
369,631	55,64
369,842	45,4
370,053	135,51
370,264	33,11
370,474	72,02
370,685	123,22
370,896	65,88
371,107	110,93
371,317	61,78
371,528	98,64
371,739	108,88
371,95	33,11
372,16	33,11
372,371	-26,28
372,582	137,56
372,792	0,34
373,003	104,79
373,214	16,73
373,424	78,16
373,635	147,8
373,846	160,08
374,056	106,84
374,267	51,54
374,477	74,07
374,688	86,36
374,898	37,2
375,109	100,69
375,319	72,02
375,53	162,13
375,74	160,08
375,951	129,36
376,161	184,66
376,372	115,03
376,582	143,7
376,793	153,94
377,003	201,04
377,214	47,44
377,424	192,85
377,635	94,55
377,845	121,17
378,055	192,85
378,266	90,45
378,476	92,5
378,686	160,08
378,897	92,5
379,107	110,93
379,317	84,31
379,528	61,78
379,738	92,5
379,948	112,98
380,158	139,6
380,369	35,16
380,579	129,36
380,789	90,45
380,999	90,45
381,21	82,26
381,42	67,92
381,63	102,74
381,84	127,32
382,05	59,73
382,261	47,44
382,471	59,73
382,681	16,73
382,891	115,03
383,101	98,64
383,311	55,64
383,521	164,18
383,731	102,74
383,941	119,12
384,151	104,79
384,361	84,31
384,571	162,13
384,781	131,41
384,991	129,36
385,201	80,21
385,411	178,51
385,621	164,18
385,831	186,71
386,041	149,84
386,251	164,18
386,461	211,28
386,671	180,56
386,881	160,08
387,091	176,47
387,301	205,14
387,511	266,58
387,72	186,71
387,93	301,39
388,14	223,57
388,35	323,92
388,56	266,58
388,769	235,86
388,979	354,64
389,189	274,77
389,399	336,21
389,609	500,05
389,818	356,69
390,028	364,88
390,238	276,82
390,447	344,4
390,657	301,39
390,867	231,76
391,076	194,9
391,286	137,56
391,496	162,13
391,705	172,37
391,915	88,4
392,125	133,46
392,334	227,67
392,544	188,75
392,753	162,13
392,963	289,1
393,172	297,3
393,382	319,82
393,591	399,7
393,801	309,58
394,01	313,68
394,22	250,19
394,429	301,39
394,639	215,38
394,848	270,67
395,058	295,25
395,267	289,1
395,477	239,95
395,686	375,12
395,895	346,45
396,105	416,08
396,314	534,86
396,524	657,74
396,733	702,79
396,942	776,52
397,152	883,02
397,361	973,13
397,57	1206,59
397,78	1124,68
397,989	1227,07
398,198	1397,06
398,407	1519,93
398,617	1419,58
398,826	1624,38
399,035	1438,02
399,244	1689,92
399,453	1632,57
399,663	1907
399,872	1845,56
400,081	1943,86
400,29	1720,64
400,499	1890,62
400,708	1839,42
400,917	2122,04
401,127	1931,58
401,336	2031,93
401,545	1884,47
401,754	1972,54
401,963	2163
402,172	2144,56
402,381	1835,32
402,59	2181,43
402,799	1947,96
403,008	2177,33
403,217	1837,37
403,426	2066,74
403,635	1984,82
403,844	2142,52
404,053	2097,46
404,262	2160,95
404,471	2089,27
404,68	2373,94
404,888	2007,35
405,097	2070,84
405,306	2087,22
405,515	2097,46
405,724	2072,89
405,933	2505,01
406,142	2253,11
406,35	2459,95
406,559	2529,58
406,768	2787,63
406,977	2468,14
407,185	2853,16
407,394	2644,27
407,603	2744,62
407,812	2584,88
408,02	2742,57
408,229	2363,7
408,438	2599,21
408,646	2631,98
408,855	2748,72
409,064	2611,5
409,272	3023,14
409,481	2986,28
409,69	3227,94
409,898	2988,33
410,107	3442,98
410,315	2982,18
410,524	3592,48
410,733	3176,74
410,941	3340,58
411,15	3277,09
411,358	3436,83
411,567	3350,82
411,775	3623,2
411,984	3397,92
412,192	3651,87
412,401	3488,03
412,609	3750,17
412,818	3455,26
413,026	3748,12
413,234	3481,89
413,443	3610,91
413,651	3481,89
413,86	3731,74
414,068	3735,84
414,276	3858,71
414,485	3645,73
414,693	3811,61
414,901	3993,88
415,11	4081,94
415,318	3481,89
415,526	4061,46
415,734	3535,14
415,943	3756,32
416,151	3533,09
416,359	3717,4
416,567	3668,25
416,776	3713,31
416,984	3655,97
417,192	3768,6
417,4	3721,5
417,608	3633,44
417,817	3733,79
418,025	3701,02
418,233	3807,52
418,441	3856,67
418,649	3891,48
418,857	4137,24
419,065	3926,3
419,273	4272,4
419,481	3868,95
419,689	4356,37
419,897	4505,87
420,105	4397,33
420,313	3987,74
420,521	4145,43
420,729	3868,95
420,937	4165,91
421,145	3946,78
421,353	4161,81
421,561	3924,25
421,769	4104,47
421,977	4348,18
422,185	4129,05
422,393	4346,13
422,601	4507,92
422,809	4208,92
423,017	4307,22
423,224	4229,4
423,432	4423,95
423,64	4043,03
423,848	4548,88
424,056	4149,53
424,263	4473,11
424,471	4434,19
424,679	4313,36
424,887	4266,26
425,094	4733,2
425,302	4034,84
425,51	4520,21
425,718	4348,18
425,925	4276,5
426,133	4399,38
426,341	4593,94
426,548	4495,63
426,756	4563,22
426,964	4354,32
427,171	4421,91
427,379	4380,95
427,586	4374,8
427,794	3981,59
428,001	4321,56
428,209	4073,75
428,417	3811,61
428,624	3778,84
428,832	3645,73
429,039	3449,12
429,247	3490,08
429,454	3854,62
429,662	4335,89
429,869	3821,85
430,076	4632,85
430,284	4131,09
430,491	4933,9
430,699	5091,59
430,906	5298,44
431,114	4985,1
431,321	5204,23
431,528	5265,67
431,736	5839,1
431,943	5785,85
432,15	5593,34
432,358	5497,09
432,565	5818,62
432,772	5372,16
432,979	5900,54
433,187	5703,93
433,394	5994,75
433,601	6277,37
433,808	6426,87
434,016	6230,26
434,223	6580,46
434,43	7108,84
434,637	6893,8
434,844	7141,61
435,052	7405,8
435,259	7012,59
435,466	7067,88
435,673	6793,45
435,88	7160,04
436,087	7217,38
436,294	7174,38
436,501	6469,87
436,708	6654,19
436,915	6672,62
437,122	7076,07
437,329	6703,34
437,537	7096,55
437,743	6891,76
437,95	6924,52
438,157	6998,25
438,364	7385,32
438,571	7250,15
438,778	7284,97
438,985	7825,63
439,192	7442,66
439,399	7811,29
439,606	7626,98
439,813	7811,29
440,02	8597,71
440,227	8298,71
440,433	8169,69
440,64	8573,14
440,847	8356,05
441,054	8333,53
441,261	8814,8
441,467	8474,84
441,674	8526,04
441,881	8605,91
442,088	8812,75
442,294	8368,34
442,501	8947,92
442,708	8657,11
442,914	9205,96
443,121	9289,93
443,328	9001,16
443,534	9066,7
443,741	8722,64
443,948	8663,25
444,154	9001,16
444,361	8626,39
444,568	8788,18
444,774	8255,7
444,981	8511,7
445,187	8714,45
445,394	9099,47
445,6	8835,28
445,807	9951,42
446,013	9248,97
446,22	9441,48
446,426	9390,28
446,633	9640,13
446,839	9742,53
447,046	9279,69
447,252	9945,28
447,459	9889,98
447,665	9236,68
447,871	10082,49
448,078	10426,55
448,284	9593,03
448,491	10111,16
448,697	10467,51
448,903	10506,42
449,11	10811,57
449,316	10307,77
449,522	10711,22
449,728	10918,06
449,935	10936,49
450,141	10588,34
450,347	11278,51
450,553	10469,56
450,76	10442,93
450,966	10471,61
451,172	10393,78
451,378	10268,86
451,584	10422,45
451,791	10275
451,997	10231,99
452,203	10625,2
452,409	10621,11
452,615	10500,28
452,821	10258,62
453,027	10078,4
453,233	10920,11
453,44	10246,33
453,646	10805,42
453,852	10870,96
454,058	11239,59
454,264	10938,54
454,47	11735,2
454,676	11176,11
454,882	12026,01
455,088	11108,52
455,294	11661,48
455,5	11880,61
455,705	12073,12
455,911	11712,67
456,117	11892,9
456,323	11993,25
456,529	11421,86
456,735	11851,94
456,941	11575,46
457,147	11823,26
457,352	11907,23
457,558	11546,79
457,764	12126,36
457,97	12066,97
458,176	11983,01
458,381	12134,56
458,587	11985,05
458,793	12275,87
458,999	12054,69
459,204	13195,4
459,41	13756,55
459,616	12658,84
459,821	13265,03
460,027	13561,99
460,233	13639,81
460,438	13162,64
460,644	14041,22
460,85	13398,15
461,055	13867,14
461,261	13711,49
461,466	13258,89
461,672	13052,05
461,878	14270,59
462,083	13441,16
462,289	13482,12
462,494	13785,22
462,7	13088,91
462,905	13029,52
463,111	13883,52
463,316	14004,35
463,522	14110,85
463,727	14231,68
463,932	14633,08
464,138	14889,07
464,343	15032,43
464,549	14819,44
464,754	16156,77
464,959	15712,36
465,165	15808,61
465,37	15147,12
465,575	14944,37
465,781	15759,46
465,986	16300,12
466,191	15847,52
466,397	16259,17
466,602	15140,97
466,807	16230,49
467,012	16111,71
467,218	16650,33
467,423	16803,92
467,628	17430,6
467,833	18174,02
468,038	17516,62
468,244	16980,05
468,449	18133,06
468,654	17440,84
468,859	17467,47
469,064	17256,53
469,269	17258,57
469,474	17619,02
469,679	18059,33
469,885	17711,18
470,09	18890,81
470,295	18995,25
470,5	18759,74
470,705	19038,26
470,91	19028,02
471,115	19097,65
471,32	20027,43
471,525	19806,25
471,73	19961,89
471,935	19873,83
472,139	19736,62
472,344	19873,83
472,549	20619,29
472,754	20836,38
472,959	21098,52
473,164	20594,72
473,369	20938,77
473,574	21571,6
473,778	21633,04
473,983	22073,35
474,188	22116,36
474,393	21305,36
474,598	21891,08
474,802	21616,65
475,007	21940,23
475,212	22038,53
475,417	22126,6
475,621	22530,05
475,826	22919,16
476,031	23105,52
476,235	23162,87
476,44	23812,07
476,645	23932,9
476,849	24217,57
477,054	24500,19
477,259	24778,72
477,463	24809,43
477,668	25106,39
477,872	25894,86
478,077	25239,51
478,282	26081,22
478,486	25710,54
478,691	26277,83
478,895	26163,14
479,1	26646,46
479,304	27019,19
479,509	26558,4
479,713	27639,73
479,918	27592,62
480,122	27570,1
480,326	28041,13
480,531	28348,32
480,735	28555,17
480,94	28305,32
481,144	29497,24
481,348	28487,59
481,553	29425,56
481,757	28802,97
481,961	29433,75
482,166	29568,91
482,37	29831,05
482,574	29441,94
482,778	29847,44
482,983	30246,79
483,187	29972,36
483,391	29560,72
483,595	29806,48
483,8	29124,5
484,004	28788,64
484,208	28405,67
484,412	27848,62
484,616	27154,36
484,821	27529,14
485,025	26632,13
485,229	27373,49
485,433	27191,22
485,637	27566
485,841	28055,47
486,045	28659,62
486,249	29165,46
486,453	29343,64
486,657	29990,8
486,861	30287,75
487,065	29601,68
487,269	30517,12
487,473	30308,23
487,677	30939,01
487,881	31266,68
488,085	32044,91
488,289	32309,1
488,493	32628,58
488,697	32614,24
488,901	33458,01
489,105	33202,01
489,309	33482,58
489,512	33132,38
489,716	33417,05
489,92	33279,83
490,124	33576,79
490,328	33931,09
490,531	33032,03
490,735	32864,1
490,939	33081,18
491,143	33052,51
491,346	33245,02
491,55	34375,5
491,754	34271,05
491,958	34846,53
492,161	34084,69
492,365	34588,49
492,569	34797,38
492,772	34144,08
492,976	34629,44
493,18	35139,39
493,383	35354,43
493,587	35800,88
493,79	35727,16
493,994	35366,71
494,197	35981,1
494,401	35417,91
494,605	35692,34
494,808	35825,46
495,012	35960,62
495,215	35876,66
495,419	36108,08
495,622	36071,21
495,825	36525,86
496,029	36495,14
496,232	37218,08
496,436	36116,27
496,639	36785,96
496,843	36060,98
497,046	36263,72
497,249	36128,56
497,453	35835,7
497,656	36011,82
497,859	35606,33
498,063	35954,48
498,266	36464,42
498,469	35786,55
498,673	35585,85
498,876	35589,94
499,079	35518,26
499,282	34905,92
499,485	35086,14
499,689	34545,48
499,892	34944,83
500,095	34422,6
500,298	34434,89
500,501	34584,39
500,705	35307,32
500,908	34926,4
501,111	34766,66
501,314	34756,42
501,517	35229,5
501,72	35264,32
501,923	35123,01
502,126	35698,48
502,329	35778,36
502,532	34662,21
502,735	34867,01
502,938	34975,55
503,141	35292,99
503,344	35628,85
503,547	35522,36
503,75	35968,82
503,953	35972,91
504,156	36429,61
504,359	36445,99
504,562	36532,01
504,765	36853,54
504,968	36456,23
505,17	37138,21
505,373	36718,37
505,576	36734,76
505,779	37441,31
505,982	37068,58
506,185	37048,1
506,387	36634,41
506,59	36341,55
506,793	36708,13
506,996	36478,76
507,198	37725,97
507,401	36722,47
507,604	37199,65
507,807	37662,49
508,009	37986,07
508,212	37734,17
508,415	38031,12
508,617	38020,88
508,82	38031,12
509,022	37412,63
509,225	38285,07
509,428	37943,06
509,63	38448,91
509,833	38108,94
510,035	38518,54
510,238	38717,19
510,44	39089,92
510,643	39134,98
510,845	39264
511,048	38647,56
511,25	38665,99
511,453	38848,26
511,655	39264
511,858	38266,64
512,06	38635,27
512,262	39008
512,465	38096,66
512,667	37961,49
512,87	38180,62
513,072	37490,46
513,274	38420,24
513,477	38713,09
513,679	38432,52
513,881	38502,15
514,084	38840,07
514,286	38653,7
514,488	38950,66
514,69	39022,34
514,893	38307,6
515,095	37101,34
515,297	36804,39
515,499	36259,63
515,701	36116,27
515,904	36171,57
516,106	35798,84
516,308	35868,47
516,51	36085,55
516,712	35753,78
516,914	36402,99
517,116	36374,31
517,318	36448,04
517,52	35958,58
517,722	36384,55
517,925	37582,62
518,127	37719,83
518,329	38299,4
518,531	37926,67
518,733	38426,38
518,935	39526,14
519,136	39280,38
519,338	40029,94
519,54	39800,57
519,742	40044,27
519,944	40208,11
520,146	40832,74
520,348	40951,52
520,55	40853,22
520,752	40689,38
520,954	41420,51
521,155	40734,44
521,357	41533,15
521,559	40996,58
521,761	41549,53
521,963	41049,83
522,164	41287,39
522,366	41066,21
522,568	41979,6
522,77	42012,37
522,971	43167,43
523,173	42329,81
523,375	43224,77
523,576	42198,74
523,778	42176,21
523,98	42759,88
524,181	42360,53
524,383	42233,55
524,584	42503,88
524,786	41584,35
524,988	41600,73
525,189	40736,49
525,391	40586,99
525,592	40179,44
525,794	39587,58
525,995	39444,22
526,197	39632,63
526,398	39806,71
526,6	40619,75
526,801	40613,61
527,003	40840,93
527,204	40814,31
527,406	41674,46
527,607	41584,35
527,808	41838,29
528,01	41029,35
528,211	42561,23
528,412	42706,63
528,614	41823,96
528,815	41617,11
529,016	42546,89
529,218	41987,8
529,419	42256,08
529,62	42364,62
529,822	42157,78
530,023	42520,27
530,224	42974,92
530,425	42256,08
530,626	41846,49
530,828	41352,93
531,029	41909,97
531,23	40421,1
531,431	40718,06
531,632	40310,51
531,833	40349,42
532,035	39902,96
532,236	40230,64
532,437	40640,23
532,638	39931,64
532,839	40349,42
533,04	40701,67
533,241	39687,93
533,442	40709,86
533,643	40367,85
533,844	40072,95
534,045	40863,46
534,246	40951,52
534,447	41359,07
534,648	40842,98
534,849	41361,12
535,05	40896,23
535,251	40863,46
535,451	40548,07
535,652	40445,68
535,853	40044,27
536,054	39732,98
536,255	40429,29
536,456	39474,94
536,657	40906,47
536,857	40427,24
537,058	40171,25
537,259	41002,72
537,46	40079,09
537,66	39358,2
537,861	39833,33
538,062	39173,89
538,263	39823,09
538,463	38964,99
538,664	39358,2
538,865	39024,39
539,065	39030,53
539,266	37644,05
539,466	38414,09
539,667	37928,72
539,868	38135,57
540,068	37898
540,269	38147,86
540,469	38512,39
540,67	38305,55
540,87	38332,17
541,071	37848,85
541,271	37941,01
541,472	38436,62
541,672	38070,03
541,873	37752,6
542,073	37547,8
542,274	38639,37
542,474	38113,04
542,675	38301,45
542,875	39040,77
543,075	38608,65
543,276	38389,52
543,476	38700,81
543,676	38176,53
543,877	39118,59
544,077	38436,62
544,277	38690,57
544,478	38274,83
544,678	38446,86
544,878	38483,72
545,078	38536,97
545,279	37918,48
545,479	38262,54
545,679	38256,4
545,879	38057,74
546,079	37676,82
546,28	38024,98
546,48	37277,47
546,68	37779,22
546,88	37293,85
547,08	37740,31
547,28	37199,65
547,48	37760,79
547,68	37754,65
547,88	37586,71
548,081	38571,78
548,281	38465,29
548,481	37750,55
548,681	38440,71
548,881	37852,95
549,081	37748,5
549,28	37535,51
549,48	37984,02
549,68	37861,14
549,88	38027,03
550,08	37310,24
550,28	37955,35
550,48	37533,46
550,68	38043,41
550,88	37887,76
551,08	37703,45
551,279	37785,36
551,479	37265,18
551,679	37490,46
551,879	37920,53
552,079	37992,21
552,278	37814,04
552,478	37183,26
552,678	38315,79
552,878	38293,26
553,077	38330,12
553,277	36841,25
553,477	37838,61
553,676	37750,55
553,876	38141,71
554,076	37431,07
554,275	37312,28
554,475	37447,45
554,674	36933,41
554,874	37261,08
555,074	37609,24
555,273	37183,26
555,473	37152,54
555,672	37009,18
555,872	36949,79
556,071	37154,59
556,271	37066,53
556,47	36693,8
556,67	36482,86
556,869	36345,64
557,068	36454,19
557,268	36106,03
557,467	36054,83
557,667	36190
557,866	35641,14
558,065	35376,95
558,265	35131,2
558,464	34719,56
558,663	35721,01
558,863	34848,58
559,062	35690,29
559,261	34993,98
559,461	35706,68
559,66	35196,73
559,859	36089,65
560,058	35249,98
560,258	35516,22
560,457	35018,56
560,656	35938,1
560,855	35043,13
561,054	35276,6
561,253	35065,66
561,453	35680,05
561,652	35811,12
561,851	35860,27
562,05	35372,86
562,249	35454,78
562,448	35673,91
562,647	35614,52
562,846	35526,46
563,045	35602,23
563,244	35385,15
563,443	35602,23
563,642	35329,85
563,841	35651,38
564,04	34883,39
564,239	35039,04
564,438	34492,23
564,637	34729,8
564,836	34000,72
565,035	34377,54
565,234	34596,68
565,432	34381,64
565,631	34348,87
565,83	34783,04
566,029	34295,63
566,228	34213,71
566,427	34322,25
566,625	34936,64
566,824	33922,9
567,023	34811,71
567,222	33855,31
567,42	34199,37
567,619	33609,56
567,818	33558,36
568,016	33584,98
568,215	34367,3
568,414	33797,97
568,612	33820,5
568,811	33402,71
569,01	33859,41
569,208	32483,17
569,407	32919,39
569,605	31725,43
569,804	32511,85
570,002	31866,74
570,201	32208,75
570,4	32135,02
570,598	31817,58
570,797	32391,02
570,995	32253,8
571,193	32384,87
571,392	32937,82
571,59	33285,98
571,789	33058,65
571,987	32532,32
572,186	32546,66
572,384	32221,03
572,582	32913,25
572,781	32466,79
572,979	32352,1
573,177	32446,31
573,376	32388,97
573,574	31471,48
573,772	32063,34
573,971	31997,81
574,169	31498,1
574,367	31305,59
574,565	31580,02
574,763	30957,44
574,962	31117,18
575,16	31401,85
575,358	31866,74
575,556	31137,66
575,754	32024,43
575,952	31240,06
576,151	31549,3
576,349	31389,56
576,547	31659,89
576,745	30869,37
576,943	31137,66
577,141	30785,41
577,339	31088,51
577,537	31037,31
577,735	30900,09
577,933	31346,55
578,131	31283,06
578,329	30967,68
578,527	30476,16
578,725	31270,78
578,923	31377,27
579,121	30994,3
579,319	31788,91
579,516	32257,9
579,714	31717,23
579,912	31561,59
580,11	31995,76
580,308	31846,26
580,506	32485,22
580,704	32061,29
580,901	33245,02
581,099	33400,66
581,297	33619,8
581,495	33230,68
581,692	33681,24
581,89	33904,46
582,088	34367,3
582,285	33634,13
582,483	34084,69
582,681	34211,66
582,878	34125,64
583,076	34211,66
583,274	34379,59
583,471	33763,15
583,669	34617,16
583,866	34164,56
584,064	34520,9
584,262	33812,31
584,459	34023,25
584,657	33376,09
584,854	33916,75
585,052	32763,75
585,249	33148,76
585,447	33470,29
585,644	33384,28
585,841	33849,17
586,039	34148,17
586,236	33218,39
586,434	33697,62
586,631	33625,94
586,828	33658,71
587,026	33769,3
587,223	33363,8
587,42	32794,46
587,618	32591,72
587,815	31283,06
588,012	30922,62
588,21	30762,88
588,407	30553,99
588,604	29775,76
588,801	30250,89
588,999	30115,72
589,196	30396,29
589,393	30504,84
589,59	30977,92
589,787	30500,74
589,984	30424,97
590,182	30607,23
590,379	31489,91
590,576	30793,6
590,773	30967,68
590,97	31043,45
591,167	31410,04
591,364	30824,32
591,561	31725,43
591,758	30869,37
591,955	31029,12
592,152	31545,2
592,349	31496,05
592,546	31876,97
592,743	32163,69
592,94	31305,59
593,137	31711,09
593,334	31596,4
593,531	31350,65
593,727	30930,81
593,924	30586,75
594,121	30187,4
594,318	30906,24
594,515	30347,14
594,712	31035,26
594,908	30351,24
595,105	30941,05
595,302	30457,73
595,499	31084,41
595,696	31133,56
595,892	31399,8
596,089	31424,37
596,286	31207,29
596,482	31463,29
596,679	31430,52
596,876	31072,12
597,072	31018,88
597,269	31139,71
597,466	30437,25
597,662	30826,37
597,859	31010,68
598,055	30832,51
598,252	30683,01
598,448	30416,77
598,645	30506,88
598,841	30818,18
599,038	30857,09
599,234	31061,88
599,431	30125,96
599,627	30023,56
599,824	30480,26
600,02	29677,46
600,217	30924,67
600,413	29869,97
600,609	29960,08
600,806	30191,5
601,002	30416,77
601,198	29998,99
601,395	29669,26
601,591	29616,02
601,787	30429,06
601,984	30039,95
602,18	30326,66
602,376	30359,43
602,572	30394,25
602,769	29853,58
602,965	30326,66
603,161	30580,61
603,357	30873,47
603,553	30164,87
603,75	31010,68
603,946	30697,34
604,142	31139,71
604,338	30613,38
604,534	31037,31
604,73	30576,51
604,926	30424,97
605,122	30783,36
605,318	30455,68
605,514	30252,94
605,71	30941,05
605,906	30494,6
606,102	30701,44
606,298	31061,88
606,494	31436,66
606,69	31238,01
606,886	31354,74
607,082	31018,88
607,278	31510,39
607,474	30252,94
607,67	31088,51
607,866	30646,15
608,062	31727,47
608,257	30803,84
608,453	31274,87
608,649	30908,29
608,845	30941,05
609,041	30834,56
609,236	31264,63
609,432	30812,03
609,628	31281,02
609,824	31195
610,019	31649,65
610,215	31354,74
610,411	31942,51
610,606	31381,37
610,802	32210,79
610,998	31870,83
611,193	31956,85
611,389	31375,22
611,584	31108,99
611,78	30924,67
611,976	30949,25
612,171	31242,1
612,367	31688,56
612,562	30982,01
612,758	31041,4
612,953	31209,34
613,149	31774,58
613,344	31702,9
613,539	32776,03
613,735	31872,88
613,93	32778,08
614,126	31983,47
614,321	32888,67
614,517	32620,39
614,712	32440,17
614,907	32010,09
615,103	32339,82
615,298	31590,26
615,493	32939,87
615,688	31719,28
615,884	32702,31
616,079	32255,85
616,274	32458,6
616,47	32073,58
616,665	32700,26
616,86	32368,49
617,055	33107,8
617,25	32880,48
617,445	33443,67
617,641	32393,06
617,836	33449,81
618,031	32919,39
618,226	33382,23
618,421	32972,64
618,616	33965,9
618,811	33484,63
619,006	34338,63
619,201	33232,73
619,396	33339,22
619,591	33091,42
619,786	34234,19
619,981	32993,12
620,176	33828,69
620,371	33025,89
620,566	33480,53
620,761	32886,62
620,956	33369,94
621,151	32282,47
621,346	32839,52
621,541	32429,93
621,735	32917,34
621,93	32671,59
622,125	32720,74
622,32	31727,47
622,515	32509,8
622,709	32685,92
622,904	32517,99
623,099	32190,31
623,294	31727,47
623,488	31537,01
623,683	31711,09
623,878	31276,92
624,072	31254,39
624,267	30633,86
624,462	30973,82
624,656	30871,42
624,851	31063,93
625,046	30607,23
625,24	30705,54
625,435	30302,09
625,629	30248,84
625,824	30431,11
626,018	30558,08
626,213	30123,91
626,407	29808,53
626,602	29267,86
626,796	29089,69
626,991	28250,02
627,185	27776,94
627,38	27439,03
627,574	27809,71
627,768	27809,71
627,963	28198,82
628,157	28213,16
628,352	28567,46
628,546	27742,13
628,74	27711,41
628,935	26922,94
629,129	27555,76
629,323	27230,13
629,517	27332,53
629,712	27383,73
629,906	27756,46
630,1	27260,85
630,294	28100,52
630,489	28020,65
630,683	28428,2
630,877	27760,56
631,071	27858,86
631,265	28012,46
631,459	27910,06
631,653	28024,75
631,848	28389,28
632,042	27684,78
632,236	28391,33
632,43	28413,86
632,624	28602,27
632,818	28188,58
633,012	28092,33
633,206	28377
633,4	28929,95
633,594	27944,87
633,788	28985,24
633,982	29200,28
634,176	28901,28
634,369	28708,77
634,563	29106,07
634,757	29183,9
634,951	29206,42
635,145	28852,13
635,339	29132,7
635,533	29147,03
635,726	29202,33
635,92	29018,01
636,114	29718,42
636,308	29304,73
636,501	29423,51
636,695	29589,39
636,889	29534,1
637,083	28870,56
637,276	29362,07
637,47	29495,19
637,664	29607,83
637,857	29876,11
638,051	29796,24
638,244	29286,29
638,438	29642,64
638,632	29603,73
638,825	29683,6
639,019	29378,45
639,212	29247,38
639,406	29048,73
639,599	29224,86
639,793	28950,43
639,986	28962,72
640,18	28841,89
640,373	29104,03
640,567	28694,43
640,76	29185,94
640,954	28630,94
641,147	28792,73
641,34	29128,6
641,534	29433,75
641,727	29423,51
641,92	29642,64
642,114	28792,73
642,307	29138,84
642,5	29034,39
642,694	29335,45
642,887	29392,79
643,08	28938,14
643,273	29069,21
643,467	29163,42
643,66	28405,67
643,853	28874,65
644,046	28080,04
644,239	29296,53
644,432	28985,24
644,626	28848,03
644,819	28643,23
645,012	28839,84
645,205	28680,1
645,398	28858,27
645,591	27916,2
645,784	27991,98
645,977	27355,06
646,17	27889,58
646,363	27852,72
646,556	28024,75
646,749	28139,43
646,942	28397,48
647,135	27498,42
647,328	27690,93
647,521	27615,15
647,714	27279,29
647,907	27213,75
648,099	27500,47
648,292	27158,45
648,485	27359,16
648,678	26662,85
648,871	26867,64
649,064	26386,37
649,256	27125,69
649,449	26329,03
649,642	27336,63
649,835	27316,15
650,027	27783,09
650,22	27879,34
650,413	27981,74
650,605	27455,41
650,798	27170,74
650,991	27166,65
651,183	27353,01
651,376	27213,75
651,568	27484,08
651,761	27221,94
651,954	26924,99
652,146	27195,32
652,339	27668,4
652,531	26838,97
652,724	27660,21
652,916	27400,12
653,109	27865
653,301	27799,47
653,494	27652,02
653,686	26750,91
653,879	27451,31
654,071	27119,54
654,263	27088,82
654,456	26959,8
654,648	27162,55
654,84	26159,05
655,033	26093,51
655,225	25108,44
655,417	24541,15
655,61	24082,41
655,802	23511,02
655,994	22755,32
656,186	23369,71
656,379	23539,69
656,571	23914,47
656,763	24133,61
656,955	24193
657,148	24829,91
657,34	25366,48
657,532	24975,32
657,724	25640,91
657,916	25272,28
658,108	25679,82
658,3	25081,81
658,492	25653,2
658,684	25321,43
658,876	25602
659,068	25886,67
659,26	26439,62
659,452	26683,33
659,644	27019,19
659,836	26396,61
660,028	26931,13
660,22	26630,08
660,412	27006,91
660,604	26531,78
660,796	26732,48
660,988	26935,23
661,18	27084,73
661,372	26791,87
661,563	27412,4
661,755	26906,55
661,947	27307,96
662,139	26884,03
662,331	26967,99
662,522	26785,72
662,714	27633,58
662,906	26914,75
663,097	26857,4
663,289	26750,91
663,481	26482,63
663,673	26288,07
663,864	26431,43
664,056	26269,64
664,247	26486,72
664,439	25685,97
664,631	26382,27
664,822	26697,66
665,014	26900,41
665,205	26630,08
665,397	26408,9
665,588	26120,13
665,78	26288,07
665,971	26073,03
666,163	26390,47
666,354	26365,89
666,546	26632,13
666,737	26283,97
666,929	26619,84
667,12	25974,73
667,311	26011,59
667,503	25292,76
667,694	25812,94
667,885	25577,42
668,077	26283,97
668,268	25860,04
668,459	26382,27
668,651	26064,84
668,842	26064,84
669,033	25735,12
669,224	25999,3
669,416	26081,22
669,607	25876,43
669,798	25645,01
669,989	25677,77
670,18	25708,49
670,371	25642,96
670,563	25221,08
670,754	25108,44
670,945	25454,54
671,136	26087,37
671,327	25483,22
671,518	25380,82
671,709	25143,25
671,9	25907,15
672,091	25333,71
672,282	25370,58
672,473	25491,41
672,664	25993,16
672,855	25092,05
673,046	25669,58
673,237	25415,63
673,428	25479,12
673,619	25231,32
673,809	25386,96
674	25513,94
674,191	25700,3
674,382	24948,7
674,573	24774,62
674,764	24733,66
674,954	25057,24
675,145	25104,34
675,336	25196,5
675,527	24723,42
675,717	25421,78
675,908	24641,5
676,099	24889,31
676,289	25028,57
676,48	25354,19
676,671	24838,11
676,861	25018,33
677,052	24082,41
677,243	24518,62
677,433	25042,9
677,624	25008,09
677,814	24903,64
678,005	25178,07
678,195	24891,35
678,386	24993,75
678,576	24352,74
678,767	24930,26
678,957	24600,54
679,148	24862,68
679,338	24410,08
679,529	24532,96
679,719	24514,53
679,909	24907,74
680,1	24051,69
680,29	24602,59
680,481	24555,49
680,671	24733,66
680,861	24383,46
681,052	24604,64
681,242	24322,02
681,432	24877,02
681,622	24420,32
681,813	24436,7
682,003	24348,64
682,193	24791
682,383	24532,96
682,573	23599,09
682,764	23189,49
682,954	23965,67
683,144	23783,4
683,334	24010,73
683,524	23842,79
683,714	23982,06
683,904	23488,49
684,094	24193
684,284	23990,25
684,474	25094,1
684,664	24373,22
684,854	24711,13
685,044	23916,52
685,234	23345,14
685,424	23392,24
685,614	23578,61
685,804	23492,59
685,994	23074,81
686,184	21045,27
686,374	19394,61
686,564	17176,66
686,753	16212,06
686,943	14368,89
687,133	14223,48
687,323	13674,63
687,513	14186,62
687,702	14647,41
687,892	15054,96
688,082	15122,54
688,272	15122,54
688,461	15298,67
688,651	14925,94
688,841	14571,64
689,03	14874,74
689,22	14649,46
689,41	15083,63
689,599	15036,53
689,789	15724,65
689,979	15405,16
690,168	16203,87
690,358	15947,87
690,547	16660,57
690,737	16805,97
690,926	17612,87
691,116	17553,48
691,305	17995,84
691,495	17979,46
691,684	18638,9
691,874	19122,23
692,063	19189,81
692,252	19058,74
692,442	19345,45
692,631	19032,11
692,82	19527,72
693,01	19286,06
693,199	19607,59
693,388	19552,3
693,578	19861,54
693,767	19603,5
693,956	19658,79
694,146	19513,39
694,335	19599,4
694,524	19832,87
694,713	20387,87
694,902	20789,27
695,092	20754,46
695,281	20176,93
695,47	20422,69
695,659	20426,78
695,848	20561,95
696,037	20275,23
696,226	20480,03
696,415	20723,74
696,604	21221,39
696,793	20951,06
696,982	21534,73
697,171	21639,18
697,36	21755,91
697,549	21389,33
697,738	21569,55
697,927	20623,39
698,116	21448,72
698,305	20482,08
698,494	20693,02
698,683	20627,48
698,872	20856,86
699,061	20467,74
699,25	20541,47
699,438	20480,03
699,627	20762,65
699,816	20279,33
700,005	20912,15
700,193	20529,18
700,382	21264,4
700,571	20342,81
700,76	20611,1
700,948	20254,75
701,137	19689,51
701,326	19861,54
701,514	20389,92
701,703	19396,65
701,892	19707,94
702,08	19654,7
702,269	20105,25
702,457	19562,54
702,646	20080,67
702,834	19716,14
703,023	19890,21
703,212	19970,08
703,4	20322,34
703,589	20099,11
703,777	21317,65
703,965	20158,5
704,154	20379,68
704,342	20308
704,531	20723,74
704,719	20322,34
704,907	20709,4
705,096	20613,15
705,284	20559,9
705,472	20164,64
705,661	20453,41
705,849	20432,93
706,037	20754,46
706,226	20162,59
706,414	20238,37
706,602	20207,65
706,79	20588,57
706,979	20166,69
707,167	20123,68
707,355	20076,58
707,543	19953,7
707,731	20293,66
707,919	20551,71
708,107	20404,25
708,296	20432,93
708,484	19929,13
708,672	20467,74
708,86	19896,36
709,048	20310,05
709,236	20158,5
709,424	20504,6
709,612	20189,22
709,8	20381,73
709,988	20125,73
710,176	20232,22
710,364	19851,3
710,551	19646,51
710,739	19843,11
710,927	20467,74
711,115	19415,09
711,303	19456,04
711,491	19116,08
711,679	19632,17
711,866	19417,13
712,054	19542,06
712,242	19019,83
712,43	20084,77
712,617	19636,27
712,805	19083,31
712,993	19492,91
713,181	19120,18
713,368	18884,66
713,556	19501,1
713,744	19410,99
713,931	19787,82
714,119	19132,47
714,306	19136,56
714,494	19097,65
714,682	19163,18
714,869	19126,32
715,057	19281,97
715,244	18651,19
715,432	18587,71
715,619	18268,22
715,807	18724,92
715,994	18229,31
716,182	17758,28
716,369	17207,37
716,556	17379,4
716,744	16453,72
716,931	16091,23
717,119	15505,51
717,306	15175,79
717,493	14889,07
717,681	14915,7
717,868	14340,22
718,055	14305,4
718,242	13435,02
718,43	13463,69
718,617	12865,68
718,804	13015,18
718,991	12578,97
719,179	12621,97
719,366	12554,39
719,553	12853,39
719,74	12157,08
719,927	12064,93
720,114	11813,03
720,301	12492,95
720,488	11999,39
720,676	12982,42
720,863	13006,99
721,05	13492,36
721,237	13969,54
721,424	14758
721,611	14979,18
721,798	15310,96
721,985	14882,93
722,172	15120,49
722,358	15063,15
722,545	15335,53
722,732	15083,63
722,919	14975,09
723,106	14461,05
723,293	14671,99
723,48	13848,71
723,667	13901,95
723,853	13162,64
724,04	13639,81
724,227	13312,14
724,414	13504,65
724,6	12933,26
724,787	13228,17
724,974	13205,64
725,161	13361,29
725,347	12779,67
725,534	13416,58
725,72	13160,59
725,907	13213,84
726,094	13015,18
726,28	13070,48
726,467	12826,77
726,653	12861,59
726,84	12654,74
727,027	12963,98
727,213	12398,74
727,4	12839,06
727,586	12341,4
727,773	12660,88
727,959	12425,37
728,145	12914,83
728,332	12935,31
728,518	13052,05
728,705	13039,76
728,891	13062,29
729,077	12796,05
729,264	12755,09
729,45	12734,61
729,636	13215,88
729,823	13123,73
730,009	13652,1
730,195	13109,39
730,382	12959,89
730,568	13019,28
730,754	12837,01
730,94	12718,23
731,126	13279,37
731,313	13027,47
731,499	13332,62
731,685	13279,37
731,871	13510,79
732,057	13383,82
732,243	13627,53
732,429	14096,51
732,615	13963,39
732,801	14002,3
732,987	14192,76
733,173	14305,4
733,359	14491,77
733,545	14379,13
733,731	14655,61
733,917	14510,2
734,103	15171,69
734,289	14852,21
734,475	14721,14
734,661	14852,21
734,847	15128,69
735,033	14983,28
735,219	15257,71
735,404	15245,42
735,59	15079,54
735,776	14739,57
735,962	14825,59
736,148	14694,52
736,333	14846,07
736,519	14678,13
736,705	14985,33
736,89	14534,78
737,076	15063,15
737,262	14686,33
737,447	15292,52
737,633	14735,48
737,819	15122,54
738,004	14489,72
738,19	14585,97
738,375	14782,58
738,561	15087,73
738,747	14801,01
738,932	14626,93
739,118	14573,69
739,303	14547,06
739,489	14172,29
739,674	14616,69
739,859	14588,02
740,045	14628,98
740,23	14692,47
740,416	15022,19
740,601	14528,63
740,786	14307,45
740,972	14233,72
741,157	14176,38
741,342	14063,74
741,528	14696,57
741,713	14047,36
741,898	14366,84
742,084	14229,63
742,269	14790,77
742,454	14051,45
742,639	14342,27
742,824	14184,57
743,01	14352,51
743,195	13871,23
743,38	14241,92
743,565	14170,24
743,75	14424,19
743,935	14059,65
744,12	14491,77
744,305	14022,78
744,49	13979,78
744,675	13707,4
744,86	14026,88
745,045	14162,05
745,23	13836,42
745,415	13674,63
745,6	14131,33
745,785	14018,69
745,97	14231,68
746,155	13865,09
746,34	13930,62
746,525	13766,79
746,71	13795,46
746,895	13832,32
747,079	13865,09
747,264	13584,52
747,449	13879,43
747,634	13394,06
747,819	14016,64
748,003	13353,1
748,188	13723,78
748,373	13502,6
748,557	13621,38
748,742	13240,46
748,927	13363,34
749,111	13219,98
749,296	13686,92
749,481	13762,69
749,665	13605
749,85	12775,57
750,034	12976,27
750,219	13070,48
750,404	13303,95
750,588	13113,49
750,773	13039,76
750,957	13031,57
751,141	12837,01
751,326	12648,6
751,51	13232,27
751,695	12757,14
751,879	13277,32
752,064	12884,11
752,248	13410,44
752,432	12845,2
752,617	13033,61
752,801	12945,55
752,985	13580,42
753,17	12916,88
753,354	13170,83
753,538	12894,35
753,722	12992,66
753,907	12650,64
754,091	12890,26
754,275	12406,94
754,459	12832,91
754,643	12605,59
754,828	12560,53
755,012	11907,23
755,196	12277,91
755,38	11593,89
755,564	12202,14
755,748	12038,3
755,932	12507,29
756,116	11790,5
756,3	11940
756,484	11602,08
756,668	11735,2
756,852	11573,41
757,036	12062,88
757,22	11565,22
757,404	12015,77
757,588	11612,32
757,772	11987,1
757,956	11872,42
758,14	11968,67
758,323	11352,23
758,507	11606,18
758,691	11255,98
758,875	11399,34
759,059	10455,22
759,242	10086,59
759,426	8894,67
759,61	7409,89
759,794	5824,76
759,977	4458,77
760,161	2949,42
760,345	2054,45
760,528	1272,13
760,712	926,02
760,895	655,69
761,079	395,6
761,263	336,21
761,446	282,96
761,63	440,65
761,813	508,24
761,997	592,2
762,18	672,08
762,364	500,05
762,547	551,24
762,731	291,15
762,914	252,24
763,098	112,98
763,281	119,12
763,464	100,69
763,648	94,55
763,831	186,71
764,015	184,66
764,198	239,95
764,381	254,29
764,564	393,55
764,748	504,14
764,931	598,35
765,114	1048,9
765,297	1104,2
765,481	1804,6
765,664	2062,65
765,847	2752,81
766,03	2918,7
766,213	3678,49
766,397	3862,81
766,58	4591,89
766,763	4888,84
766,946	5642,5
767,129	6000,89
767,312	7047,4
767,495	7379,17
767,678	8014,04
767,861	8378,58
768,044	8882,38
768,227	8984,78
768,41	9517,25
768,593	9951,42
768,776	10442,93
768,959	10457,27
769,142	10746,03
769,324	10633,4
769,507	11194,54
769,69	11012,27
769,873	11092,14
770,056	11137,2
770,239	11288,75
770,421	11542,69
770,604	12292,25
770,787	12058,78
770,97	12292,25
771,152	11952,29
771,335	12535,96
771,518	12427,42
771,7	12177,56
771,883	12527,77
772,066	12615,83
772,248	12503,19
772,431	12925,07
772,613	12767,38
772,796	12976,27
772,978	12761,23
773,161	12912,78
773,343	12904,59
773,526	13156,49
773,708	12681,36
773,891	12607,64
774,073	12841,11
774,256	12730,52
774,438	12791,95
774,621	12994,7
774,803	12746,9
774,985	12845,2
775,168	12757,14
775,35	13174,92
775,532	13187,21
775,715	13510,79
775,897	13111,44
776,079	13377,67
776,261	13531,27
776,444	13590,66
776,626	13494,41
776,808	13240,46
776,99	13115,53
777,173	13232,27
777,355	12859,54
777,537	13269,13
777,719	12775,57
777,901	13066,38
778,083	12890,26
778,265	12843,15
778,447	12531,86
778,629	12744,85
778,811	12736,66
778,993	12984,46
779,175	12963,98
779,357	12988,56
779,539	13031,57
779,721	12980,37
779,903	12595,35
780,085	12593,3
780,267	11778,21
780,449	12116,12
780,631	11894,94
780,812	12148,89
780,994	12296,35
781,176	12695,7
781,358	12482,71
781,54	12818,58
781,721	12482,71
781,903	12290,2
782,085	11960,48
782,267	12163,23
782,448	12114,08
782,63	12640,4
782,812	12044,45
782,993	11966,62
783,175	11837,6
783,357	11853,98
783,538	11442,34
783,72	11892,9
783,901	11126,96
784,083	11378,86
784,264	11346,09
784,446	11618,47
784,627	11497,64
784,809	11368,62
784,99	11221,16
785,172	11546,79
785,353	11116,72
785,535	11468,97
785,716	11022,51
785,897	11231,4
786,079	11137,2
786,26	11217,07
786,441	11079,85
786,623	11090,09
786,804	10909,87
786,985	11172,01
787,167	11112,62
787,348	10780,85
787,529	10973,36
787,71	10934,45
787,891	10588,34
788,073	10598,58
788,254	10049,72
788,435	10127,55
788,616	10377,4
788,797	10219,71
788,978	10182,84
789,159	10197,18
789,34	9588,93
789,522	9935,04
789,703	9603,27
789,884	9672,9
790,065	9668,8
790,246	9779,39
790,427	9500,87
790,607	9826,5
790,788	9199,82
790,969	9701,57
791,15	9232,58
791,331	9339,08
791,512	9109,71
791,693	9367,75
791,874	9304,26
792,054	9425,09
792,235	9361,61
792,416	9445,57
792,597	8667,35
792,778	8708,3
792,958	8681,68
793,139	8628,43
793,32	8472,79
793,5	8632,53
793,681	8566,99
793,862	8706,26
794,042	8628,43
794,223	8872,14
794,404	8861,9
794,584	8827,09
794,765	8345,81
794,945	8460,5
795,126	8091,87
795,306	8392,92
795,487	8057,05
795,667	8693,97
795,848	8466,64
796,028	8575,19
796,209	8311
796,389	8472,79
796,57	8204,5
796,75	8655,06
796,93	8280,28
797,111	8335,57
797,291	8087,77
797,471	8186,07
797,652	8052,95
797,832	8034,52
798,012	7864,54
798,192	7983,32
798,373	7930,08
798,553	7915,74
798,733	7919,84
798,913	8206,55
799,093	7690,46
799,274	8186,07
799,454	7620,83
799,634	8052,95
799,814	7694,56
799,994	7850,21
800,174	7772,38
800,354	7561,44
800,534	7528,67
800,714	7545,06
800,894	7497,95
801,074	7817,44
801,254	7504,1
801,434	7655,65
801,614	7516,39
801,794	7485,67
801,974	7235,81
802,154	7495,91
802,334	7209,19
802,514	7565,54
802,693	6996,2
802,873	7336,17
803,053	7108,84
803,233	7196,9
803,413	6818,03
803,592	6717,68
803,772	6770,93
803,952	7248,1
804,131	6762,73
804,311	6975,72
804,491	6783,21
804,67	7022,83
804,85	6916,33
805,03	7149,8
805,209	6756,59
805,389	6932,72
805,568	6729,97
805,748	6979,82
805,928	6652,14
806,107	7000,3
806,287	6865,13
806,466	7018,73
806,646	6758,64
806,825	7080,17
807,004	6660,34
807,184	6619,38
807,363	6308,09
807,543	6420,72
807,722	6562,03
807,901	6656,24
808,081	6396,15
808,26	6379,76
808,439	6252,79
808,619	6324,47
808,798	6140,15
808,977	6150,39
809,156	6199,54
809,336	6215,93
809,515	6009,08
809,694	6115,58
809,873	6011,13
810,052	6129,91
810,231	5849,34
810,411	5927,16
810,59	5652,74
810,769	5716,22
810,948	5757,18
811,127	5945,59
811,306	5689,6
811,485	5716,22
811,664	5665,02
811,843	5808,38
812,022	5447,94
812,201	5765,37
812,38	5550,34
812,559	5775,61
812,737	5517,57
812,916	5572,86
813,095	5224,71
813,274	5390,6
813,453	5122,31
813,632	5208,33
813,811	4593,94
813,989	4614,41
814,168	4348,18
814,347	4512,02
814,526	4133,14
814,704	4227,35
814,883	4067,61
815,062	4245,78
815,24	3895,58
815,419	3862,81
815,598	3432,74
815,776	3549,47
815,955	3533,09
816,133	3606,81
816,312	3481,89
816,49	3295,52
816,669	2953,51
816,847	3074,34
817,026	3055,91
817,204	3111,21
817,383	2935,08
817,561	3121,45
817,74	3135,78
817,918	3275,04
818,097	3045,67
818,275	3307,81
818,453	2875,69
818,632	3219,75
818,81	2996,52
818,988	2941,22
819,167	2853,16
819,345	3113,25
819,523	2926,89
819,701	3092,77
819,879	3207,46
820,058	3062,05
820,236	2926,89
820,414	3330,34
820,592	2969,9
820,77	3277,09
820,948	3227,94
821,127	3488,03
821,305	3528,99
821,483	3997,98
821,661	3815,71
821,839	3817,76
822,017	3610,91
822,195	3787,04
822,373	3352,87
822,551	3533,09
822,729	3205,41
822,907	2982,18
823,085	2705,71
823,262	2531,63
823,44	2109,75
823,618	2179,38
823,796	1984,82
823,974	2306,35
824,152	2023,73
824,329	2457,9
824,507	2502,96
824,685	2892,07
824,863	3064,1
825,04	3252,52
825,218	3346,72
825,396	3635,49
825,574	3455,26
825,751	3397,92
825,929	3330,34
826,107	3395,87
826,284	3369,25
826,462	3270,95
826,639	3035,43
826,817	3201,32
826,994	3119,4
827,172	3275,04
827,349	3332,39
827,527	3432,74
827,704	3080,49
827,882	2916,65
828,059	2515,25
828,237	2666,8
828,414	2445,62
828,591	2689,32
828,769	2529,58
828,946	2496,82
829,124	2447,66
829,301	2664,75
829,478	2462
829,655	2761
829,833	2513,2
830,01	2756,91
830,187	2674,99
830,364	2689,32
830,542	2529,58
830,719	2515,25
830,896	2636,08
831,073	2654,51
831,25	2457,9
831,427	2595,12
831,604	2455,86
831,782	2648,36
831,959	2586,93
832,136	2611,5
832,313	2310,45
832,49	2574,64
832,667	2353,46
832,844	2513,2
833,021	2320,69
833,198	2406,7
833,374	2341,17
833,551	2539,82
833,728	2343,22
833,905	2677,04
834,082	2435,38
834,259	2621,74
834,436	2279,73
834,612	2478,38
834,789	2392,37
834,966	2654,51
835,143	2488,62
835,319	2744,62
835,496	2705,71
835,673	2758,96
835,85	2492,72
836,026	2617,65
836,203	2515,25
836,38	2634,03
836,556	2302,26
836,733	2414,9
836,909	2433,33
837,086	2515,25
837,262	2529,58
837,439	2670,89
837,616	2531,63
837,792	2599,21
837,968	2560,3
838,145	2806,06
838,321	2652,46
838,498	2765,1
838,674	2482,48
838,851	2505,01
839,027	2359,6
839,203	2674,99
839,38	2574,64
839,556	2531,63
839,732	2244,92
839,909	2509,1
840,085	2371,89
840,261	2380,08
840,437	2253,11
840,614	2615,6
840,79	2365,75
840,966	2636,08
841,142	2396,46
841,318	2773,29
841,494	2543,92
841,671	2554,16
841,847	2330,93
842,023	2302,26
842,199	2261,3
842,375	2390,32
842,551	2316,59
842,727	2375,99
842,903	2240,82
843,079	2390,32
843,255	2165,04
843,431	2380,08
843,607	2132,28
843,783	2238,77
843,959	2226,48
844,134	2275,63
844,31	2062,65
844,486	2140,47
844,662	2064,69
844,838	2216,24
845,013	2076,98
845,189	2187,57
845,365	2119,99
845,541	2201,91
845,716	2189,62
845,892	2130,23
846,068	2013,49
846,244	2119,99
846,419	2005,3
846,595	2169,14
846,77	1820,99
846,946	2052,41
847,122	1884,47
847,297	2093,37
847,473	1890,62
847,648	2158,9
847,824	1825,08
847,999	2023,73
848,175	2087,22
848,35	1919,29
848,526	1685,82
848,701	1800,51
848,876	1626,43
849,052	1900,86
849,227	1820,99
849,403	1794,36
849,578	1591,61
849,753	1702,2
849,929	1407,3
850,104	1515,84
850,279	1306,95
850,454	1442,11
850,63	1374,53
850,805	1341,76
850,98	1302,85
851,155	1255,75
851,33	1188,16
851,505	1542,46
851,681	1425,73
851,856	1577,28
852,031	1409,34
852,206	1687,87
852,381	1327,43
852,556	1562,94
852,731	1497,41
852,906	1556,8
853,081	1362,24
853,256	1544,51
853,431	1407,3
853,606	1540,41
853,781	1216,83
853,956	1390,91
854,131	1130,82
854,305	1270,08
854,48	868,68
854,655	1096
854,83	735,56
855,005	797
855,18	719,18
855,354	805,19
855,529	856,39
855,704	1014,09
855,879	923,98
856,053	1085,76
856,228	1077,57
856,403	1196,36
856,577	1235,27
856,752	1175,88
856,926	1100,1
857,101	1175,88
857,276	1110,34
857,45	1263,94
857,625	1079,62
857,799	1034,57
857,974	960,84
858,148	1173,83
858,323	1046,85
858,497	1128,77
858,672	1018,18
858,846	1032,52
859,02	876,87
859,195	1022,28
859,369	966,98
859,543	1038,66
859,718	837,96
859,892	1032,52
860,066	962,89
860,241	954,69
860,415	803,15
860,589	788,81
860,763	725,32
860,938	964,93
861,112	893,26
861,286	921,93
861,46	801,1
861,634	885,06
861,808	866,63
861,982	932,17
862,157	653,64
862,331	829,77
862,505	766,28
862,679	749,9
862,853	799,05
863,027	737,61
863,201	614,73
863,375	622,92
863,549	809,29
863,722	772,43
863,896	811,34
864,07	921,93
864,244	749,9
864,418	725,32
864,592	655,69
864,766	692,55
864,939	573,77
865,113	737,61
865,287	622,92
865,461	704,84
865,634	571,72
865,808	770,38
865,982	596,3
866,156	678,22
866,329	596,3
866,503	622,92
866,676	516,43
866,85	500,05
867,024	477,52
867,197	364,88
867,371	387,41
867,544	430,41
867,718	364,88
867,891	426,32
868,065	409,94
868,238	438,61
868,412	567,63
868,585	614,73
868,759	481,61
868,932	504,14
869,105	430,41
869,279	418,13
869,452	401,74
869,625	541,01
869,799	471,37
869,972	459,09
870,145	436,56
870,319	534,86
870,492	383,31
870,665	440,65
870,838	459,09
871,011	442,7
871,185	323,92
871,358	528,72
871,531	414,03
871,704	411,98
871,877	420,17
872,05	538,96
872,223	385,36
872,396	354,64
872,569	313,68
872,742	344,4
872,915	375,12
873,088	346,45
873,261	317,78
873,434	395,6
873,607	325,97
873,78	438,61
873,953	301,39
874,126	350,54
874,299	303,44
874,471	278,87
874,644	305,49
874,817	268,63
874,99	266,58
875,163	311,63
875,335	362,83
875,508	321,87
875,681	342,35
875,853	307,54
876,026	186,71
876,199	295,25
876,371	276,82
876,544	285,01
876,717	205,14
876,889	352,59
877,062	194,9
877,234	246,1
877,407	297,3
877,579	262,48
877,752	285,01
877,924	309,58
878,097	211,28
878,269	309,58
878,442	221,52
878,614	227,67
878,786	219,47
878,959	215,38
879,131	172,37
879,303	244,05
879,476	219,47
879,648	213,33
879,82	203,09
879,993	211,28
880,165	246,1
880,337	190,8
880,509	233,81
880,681	264,53
880,854	278,87
881,026	280,91
881,198	246,1
881,37	192,85
881,542	219,47
881,714	184,66
881,886	246,1
882,058	215,38
882,23	82,26
882,402	178,51
882,574	219,47
882,746	233,81
882,918	203,09
883,09	147,8
883,262	194,9
883,434	110,93
883,606	180,56
883,778	205,14
883,95	164,18
884,122	166,23
884,293	192,85
884,465	221,52
884,637	164,18
884,809	141,65
884,98	86,36
885,152	147,8
885,324	125,27
885,496	170,32
885,667	162,13
885,839	233,81
886,011	184,66
886,182	174,42
886,354	203,09
886,525	57,68
886,697	151,89
886,869	137,56
887,04	190,8
887,212	151,89
887,383	119,12
887,555	164,18
887,726	84,31
887,897	119,12
888,069	147,8
888,24	129,36
888,412	125,27
888,583	100,69
888,754	115,03
888,926	180,56
889,097	145,75
889,268	78,16
889,44	135,51
889,611	49,49
889,782	149,84
889,953	51,54
890,125	119,12
890,296	164,18
890,467	92,5
890,638	108,88
890,809	102,74
890,98	119,12
891,151	160,08
891,323	129,36
891,494	131,41
891,665	153,94
891,836	72,02
892,007	63,83
892,178	96,6
892,349	131,41
892,52	16,73
892,691	145,75
892,862	164,18
893,032	115,03
893,203	117,08
893,374	123,22
893,545	141,65
893,716	115,03
893,887	84,31
894,057	164,18
894,228	78,16
894,399	90,45
894,57	20,82
894,74	88,4
894,911	16,73
895,082	110,93
895,253	115,03
895,423	35,16
895,594	119,12
895,764	74,07
895,935	84,31
896,106	69,97
896,276	106,84
896,447	65,88
896,617	57,68
896,788	51,54
896,958	98,64
897,129	39,25
897,299	141,65
897,47	72,02
897,64	131,41
897,81	117,08
897,981	43,35
898,151	127,32
898,322	123,22
898,492	10,58
898,662	69,97
898,832	63,83
899,003	82,26
899,173	-5,8
899,343	39,25
899,513	37,2
