Data from sun_USB4F104151__3__16-40-02-658.txt Node

Date: Thu Mar 07 16:40:02 EST 2024
User: lauri
Spectrometer: USB4F10415
Trigger mode: 4
Integration Time (sec): 2,000000E-3
Scans to average: 1
Electric dark correction enabled: true
Nonlinearity correction enabled: false
Boxcar width: 0
XAxis mode: Wavelengths
Number of Pixels in Spectrum: 3648
>>>>>Begin Spectral Data<<<<<
178,204	36,52
178,424	36,52
178,644	36,52
178,864	-10,58
179,084	-4,44
179,304	-26,96
179,524	-39,25
179,744	-65,88
179,964	52,91
180,184	-12,63
180,404	9,9
180,624	-16,73
180,844	1,71
181,064	22,19
181,283	28,33
181,503	18,09
181,723	28,33
181,943	3,75
182,163	114,34
182,383	-10,58
182,602	48,81
182,822	1,71
183,042	3,75
183,262	-35,16
183,482	24,23
183,701	-26,96
183,921	34,47
184,141	-22,87
184,361	-10,58
184,58	7,85
184,8	-20,82
185,02	-18,77
185,239	11,95
185,459	-33,11
185,679	20,14
185,898	-57,68
186,118	9,9
186,338	57
186,557	52,91
186,777	9,9
186,997	65,19
187,216	-20,82
187,436	28,33
187,655	-55,64
187,875	18,09
188,095	-29,01
188,314	93,87
188,534	44,71
188,753	54,95
188,973	-35,16
189,192	30,38
189,412	-16,73
189,631	40,62
189,851	-29,01
190,07	24,23
190,29	-10,58
190,509	13,99
190,729	9,9
190,948	22,19
191,168	22,19
191,387	65,19
191,607	36,52
191,826	-2,39
192,045	77,48
192,265	-22,87
192,484	3,75
192,704	-2,39
192,923	63,15
193,142	-24,92
193,362	42,67
193,581	-43,35
193,8	44,71
194,02	50,86
194,239	-49,49
194,458	9,9
194,678	-8,53
194,897	50,86
195,116	-16,73
195,335	20,14
195,555	22,19
195,774	61,1
195,993	3,75
196,212	85,67
196,432	50,86
196,651	-6,49
196,87	24,23
197,089	20,14
197,308	-37,2
197,528	61,1
197,747	34,47
197,966	7,85
198,185	-2,39
198,404	34,47
198,623	44,71
198,842	-2,39
199,062	-4,44
199,281	28,33
199,5	-14,68
199,719	-14,68
199,938	-20,82
200,157	9,9
200,376	61,1
200,595	52,91
200,814	-24,92
201,033	40,62
201,252	-37,2
201,471	50,86
201,69	-2,39
201,909	30,38
202,128	-12,63
202,347	1,71
202,566	61,1
202,785	93,87
203,004	24,23
203,223	-16,73
203,442	83,63
203,661	16,04
203,879	69,29
204,098	36,52
204,317	13,99
204,536	-16,73
204,755	-0,34
204,974	1,71
205,193	-14,68
205,411	30,38
205,63	1,71
205,849	-10,58
206,068	11,95
206,287	20,14
206,505	100,01
206,724	-0,34
206,943	13,99
207,162	13,99
207,381	-74,07
207,599	9,9
207,818	22,19
208,037	57
208,255	-33,11
208,474	24,23
208,693	44,71
208,911	71,34
209,13	5,8
209,349	85,67
209,567	104,11
209,786	16,04
210,005	57
210,223	20,14
210,442	1,71
210,661	24,23
210,879	-45,4
211,098	-51,54
211,316	-49,49
211,535	5,8
211,753	-26,96
211,972	59,05
212,191	28,33
212,409	-47,44
212,628	20,14
212,846	-31,06
213,065	42,67
213,283	-12,63
213,502	11,95
213,72	57
213,938	-0,34
214,157	26,28
214,375	63,15
214,594	-39,25
214,812	20,14
215,031	-10,58
215,249	9,9
215,467	-4,44
215,686	7,85
215,904	18,09
216,122	61,1
216,341	-10,58
216,559	28,33
216,778	-4,44
216,996	95,91
217,214	-33,11
217,432	73,39
217,651	20,14
217,869	-12,63
218,087	-24,92
218,306	13,99
218,524	-43,35
218,742	7,85
218,96	32,43
219,179	11,95
219,397	13,99
219,615	-76,12
219,833	54,95
220,051	-29,01
220,27	67,24
220,488	-0,34
220,706	30,38
220,924	30,38
221,142	-12,63
221,36	-35,16
221,578	-35,16
221,796	3,75
222,015	91,82
222,233	-14,68
222,451	5,8
222,669	-14,68
222,887	5,8
223,105	26,28
223,323	28,33
223,541	-39,25
223,759	40,62
223,977	-6,49
224,195	34,47
224,413	46,76
224,631	44,71
224,849	48,81
225,067	13,99
225,285	13,99
225,503	-8,53
225,721	-12,63
225,939	-18,77
226,157	24,23
226,375	-4,44
226,592	-43,35
226,81	5,8
227,028	42,67
227,246	26,28
227,464	38,57
227,682	57
227,9	-4,44
228,117	71,34
228,335	22,19
228,553	104,11
228,771	44,71
228,989	26,28
229,206	-33,11
229,424	9,9
229,642	-10,58
229,86	83,63
230,077	7,85
230,295	22,19
230,513	-78,16
230,731	-14,68
230,948	22,19
231,166	44,71
231,384	-4,44
231,601	83,63
231,819	-43,35
232,037	26,28
232,254	44,71
232,472	-6,49
232,689	1,71
232,907	18,09
233,125	93,87
233,342	18,09
233,56	38,57
233,777	-2,39
233,995	54,95
234,213	46,76
234,43	34,47
234,648	59,05
234,865	46,76
235,083	38,57
235,3	-14,68
235,518	13,99
235,735	1,71
235,953	-10,58
236,17	32,43
236,388	-76,12
236,605	-14,68
236,822	28,33
237,04	71,34
237,257	46,76
237,475	3,75
237,692	-14,68
237,909	54,95
238,127	-0,34
238,344	42,67
238,562	-65,88
238,779	11,95
238,996	28,33
239,214	-57,68
239,431	-10,58
239,648	-14,68
239,865	-29,01
240,083	30,38
240,3	46,76
240,517	-4,44
240,735	32,43
240,952	40,62
241,169	42,67
241,386	3,75
241,603	-4,44
241,821	38,57
242,038	52,91
242,255	-14,68
242,472	52,91
242,689	1,71
242,907	52,91
243,124	-4,44
243,341	-43,35
243,558	-78,16
243,775	30,38
243,992	36,52
244,209	-22,87
244,426	7,85
244,643	-49,49
244,86	-12,63
245,078	95,91
245,295	-43,35
245,512	34,47
245,729	-0,34
245,946	11,95
246,163	26,28
246,38	69,29
246,597	-22,87
246,814	36,52
247,031	59,05
247,248	112,3
247,464	-6,49
247,681	36,52
247,898	-0,34
248,115	63,15
248,332	61,1
248,549	65,19
248,766	26,28
248,983	77,48
249,2	61,1
249,417	3,75
249,633	38,57
249,85	50,86
250,067	16,04
250,284	-8,53
250,501	30,38
250,717	42,67
250,934	40,62
251,151	-26,96
251,368	-59,73
251,585	91,82
251,801	-26,96
252,018	40,62
252,235	-2,39
252,451	7,85
252,668	36,52
252,885	-14,68
253,102	22,19
253,318	-4,44
253,535	16,04
253,752	40,62
253,968	28,33
254,185	28,33
254,401	7,85
254,618	-18,77
254,835	-0,34
255,051	38,57
255,268	59,05
255,484	-39,25
255,701	-20,82
255,917	75,43
256,134	-35,16
256,351	77,48
256,567	-24,92
256,784	63,15
257	-59,73
257,217	-2,39
257,433	20,14
257,65	-18,77
257,866	-2,39
258,082	7,85
258,299	73,39
258,515	26,28
258,732	30,38
258,948	34,47
259,165	65,19
259,381	85,67
259,597	30,38
259,814	77,48
260,03	30,38
260,246	-0,34
260,463	-16,73
260,679	-14,68
260,895	79,53
261,112	1,71
261,328	-6,49
261,544	7,85
261,761	48,81
261,977	13,99
262,193	3,75
262,409	11,95
262,626	5,8
262,842	-24,92
263,058	-51,54
263,274	93,87
263,49	5,8
263,707	3,75
263,923	5,8
264,139	73,39
264,355	3,75
264,571	50,86
264,787	40,62
265,004	59,05
265,22	24,23
265,436	-2,39
265,652	-51,54
265,868	32,43
266,084	36,52
266,3	24,23
266,516	11,95
266,732	63,15
266,948	-0,34
267,164	-35,16
267,38	-51,54
267,596	-10,58
267,812	-14,68
268,028	85,67
268,244	20,14
268,46	18,09
268,676	1,71
268,892	-6,49
269,108	-8,53
269,324	50,86
269,54	16,04
269,756	61,1
269,972	22,19
270,188	-10,58
270,403	30,38
270,619	7,85
270,835	5,8
271,051	-29,01
271,267	-22,87
271,483	16,04
271,698	63,15
271,914	18,09
272,13	-39,25
272,346	5,8
272,562	-4,44
272,777	52,91
272,993	24,23
273,209	95,91
273,425	13,99
273,64	24,23
273,856	63,15
274,072	48,81
274,287	85,67
274,503	46,76
274,719	-51,54
274,934	-104,79
275,15	-12,63
275,366	11,95
275,581	40,62
275,797	16,04
276,012	5,8
276,228	18,09
276,444	3,75
276,659	38,57
276,875	34,47
277,09	79,53
277,306	9,9
277,521	18,09
277,737	7,85
277,952	5,8
278,168	57
278,383	5,8
278,599	20,14
278,814	20,14
279,03	87,72
279,245	-0,34
279,461	-10,58
279,676	30,38
279,892	-84,31
280,107	18,09
280,322	13,99
280,538	-0,34
280,753	5,8
280,969	20,14
281,184	-20,82
281,399	38,57
281,615	-6,49
281,83	3,75
282,045	-22,87
282,26	-4,44
282,476	5,8
282,691	40,62
282,906	28,33
283,122	5,8
283,337	-16,73
283,552	22,19
283,767	69,29
283,983	-41,3
284,198	38,57
284,413	20,14
284,628	38,57
284,843	-47,44
285,058	26,28
285,274	20,14
285,489	-24,92
285,704	136,87
285,919	18,09
286,134	46,76
286,349	-31,06
286,564	22,19
286,779	48,81
286,995	18,09
287,21	30,38
287,425	-24,92
287,64	73,39
287,855	128,68
288,07	7,85
288,285	34,47
288,5	30,38
288,715	91,82
288,93	34,47
289,145	5,8
289,36	-67,92
289,575	34,47
289,79	-2,39
290,004	-41,3
290,219	-12,63
290,434	-0,34
290,649	-2,39
290,864	32,43
291,079	28,33
291,294	42,67
291,509	-0,34
291,724	-39,25
291,938	-72,02
292,153	30,38
292,368	1,71
292,583	24,23
292,798	81,58
293,012	-69,97
293,227	46,76
293,442	-24,92
293,657	36,52
293,871	30,38
294,086	-39,25
294,301	16,04
294,516	22,19
294,73	16,04
294,945	-59,73
295,16	30,38
295,374	28,33
295,589	-2,39
295,804	-57,68
296,018	-2,39
296,233	-0,34
296,447	-8,53
296,662	26,28
296,877	28,33
297,091	7,85
297,306	34,47
297,52	-51,54
297,735	40,62
297,949	-20,82
298,164	75,43
298,378	-65,88
298,593	-10,58
298,807	-10,58
299,022	20,14
299,236	32,43
299,451	13,99
299,665	30,38
299,88	5,8
300,094	-0,34
300,309	-51,54
300,523	-20,82
300,737	3,75
300,952	91,82
301,166	-33,11
301,381	-59,73
301,595	-10,58
301,809	9,9
302,024	38,57
302,238	-2,39
302,452	42,67
302,667	3,75
302,881	46,76
303,095	1,71
303,309	5,8
303,524	59,05
303,738	3,75
303,952	18,09
304,166	48,81
304,381	54,95
304,595	3,75
304,809	16,04
305,023	-8,53
305,237	-33,11
305,452	5,8
305,666	50,86
305,88	11,95
306,094	18,09
306,308	-2,39
306,522	85,67
306,736	22,19
306,95	11,95
307,164	54,95
307,379	5,8
307,593	-2,39
307,807	46,76
308,021	-4,44
308,235	-10,58
308,449	18,09
308,663	-41,3
308,877	16,04
309,091	-29,01
309,305	9,9
309,519	7,85
309,733	65,19
309,947	22,19
310,161	-26,96
310,374	-4,44
310,588	22,19
310,802	63,15
311,016	9,9
311,23	-2,39
311,444	-6,49
311,658	-2,39
311,872	-59,73
312,085	-14,68
312,299	9,9
312,513	-26,96
312,727	38,57
312,941	54,95
313,154	61,1
313,368	-8,53
313,582	24,23
313,796	-80,21
314,009	-14,68
314,223	-59,73
314,437	-20,82
314,651	-31,06
314,864	71,34
315,078	20,14
315,292	24,23
315,505	48,81
315,719	-10,58
315,933	24,23
316,146	77,48
316,36	24,23
316,573	22,19
316,787	-10,58
317,001	28,33
317,214	5,8
317,428	54,95
317,641	36,52
317,855	18,09
318,068	-43,35
318,282	28,33
318,495	-4,44
318,709	-2,39
318,922	-2,39
319,136	16,04
319,349	59,05
319,563	13,99
319,776	63,15
319,99	73,39
320,203	-2,39
320,417	38,57
320,63	-4,44
320,843	108,2
321,057	5,8
321,27	22,19
321,483	-67,92
321,697	50,86
321,91	-10,58
322,124	5,8
322,337	11,95
322,55	28,33
322,763	9,9
322,977	63,15
323,19	9,9
323,403	24,23
323,617	1,71
323,83	30,38
324,043	130,73
324,256	-45,4
324,469	-18,77
324,683	-43,35
324,896	61,1
325,109	46,76
325,322	-37,2
325,535	-6,49
325,748	38,57
325,962	20,14
326,175	42,67
326,388	83,63
326,601	30,38
326,814	52,91
327,027	22,19
327,24	-12,63
327,453	-49,49
327,666	48,81
327,879	52,91
328,092	24,23
328,305	-8,53
328,518	71,34
328,731	-2,39
328,944	93,87
329,157	42,67
329,37	44,71
329,583	52,91
329,796	73,39
330,009	46,76
330,222	22,19
330,435	52,91
330,648	85,67
330,861	-14,68
331,073	-20,82
331,286	13,99
331,499	46,76
331,712	-24,92
331,925	-39,25
332,138	63,15
332,35	11,95
332,563	5,8
332,776	-8,53
332,989	-14,68
333,202	7,85
333,414	1,71
333,627	26,28
333,84	65,19
334,053	20,14
334,265	54,95
334,478	20,14
334,691	1,71
334,903	9,9
335,116	9,9
335,329	95,91
335,541	22,19
335,754	54,95
335,966	22,19
336,179	9,9
336,392	89,77
336,604	-16,73
336,817	11,95
337,029	36,52
337,242	-53,59
337,454	-4,44
337,667	30,38
337,88	-10,58
338,092	-33,11
338,305	-67,92
338,517	5,8
338,729	30,38
338,942	63,15
339,154	26,28
339,367	81,58
339,579	-4,44
339,792	7,85
340,004	36,52
340,217	-2,39
340,429	67,24
340,641	46,76
340,854	-2,39
341,066	36,52
341,278	11,95
341,491	40,62
341,703	-37,2
341,915	-29,01
342,128	44,71
342,34	77,48
342,552	71,34
342,764	44,71
342,977	42,67
343,189	40,62
343,401	11,95
343,613	42,67
343,826	67,24
344,038	5,8
344,25	59,05
344,462	5,8
344,674	95,91
344,886	-6,49
345,099	-6,49
345,311	-22,87
345,523	13,99
345,735	-16,73
345,947	26,28
346,159	-26,96
346,371	24,23
346,583	63,15
346,795	28,33
347,007	22,19
347,219	11,95
347,431	30,38
347,643	1,71
347,855	-37,2
348,067	5,8
348,279	40,62
348,491	36,52
348,703	48,81
348,915	5,8
349,127	34,47
349,339	-35,16
349,551	104,11
349,763	22,19
349,975	-4,44
350,187	46,76
350,399	5,8
350,61	-22,87
350,822	93,87
351,034	50,86
351,246	32,43
351,458	85,67
351,669	-39,25
351,881	-37,2
352,093	32,43
352,305	30,38
352,517	38,57
352,728	75,43
352,94	54,95
353,152	38,57
353,363	67,24
353,575	38,57
353,787	7,85
353,999	5,8
354,21	50,86
354,422	20,14
354,633	11,95
354,845	-2,39
355,057	20,14
355,268	42,67
355,48	54,95
355,692	52,91
355,903	-90,45
356,115	-33,11
356,326	34,47
356,538	28,33
356,749	5,8
356,961	-2,39
357,172	54,95
357,384	34,47
357,595	9,9
357,807	1,71
358,018	83,63
358,23	50,86
358,441	5,8
358,653	-6,49
358,864	7,85
359,075	59,05
359,287	42,67
359,498	24,23
359,709	44,71
359,921	-74,07
360,132	52,91
360,344	-35,16
360,555	-8,53
360,766	48,81
360,977	46,76
361,189	36,52
361,4	42,67
361,611	57
361,823	50,86
362,034	40,62
362,245	128,68
362,456	-2,39
362,667	9,9
362,879	67,24
363,09	-29,01
363,301	61,1
363,512	52,91
363,723	20,14
363,935	5,8
364,146	16,04
364,357	67,24
364,568	77,48
364,779	48,81
364,99	38,57
365,201	44,71
365,412	44,71
365,623	63,15
365,834	26,28
366,045	34,47
366,256	69,29
366,467	118,44
366,678	87,72
366,889	52,91
367,1	34,47
367,311	75,43
367,522	126,63
367,733	50,86
367,944	65,19
368,155	91,82
368,366	44,71
368,577	-4,44
368,788	-8,53
368,999	50,86
369,209	130,73
369,42	83,63
369,631	112,3
369,842	59,05
370,053	104,11
370,264	46,76
370,474	52,91
370,685	63,15
370,896	91,82
371,107	42,67
371,317	87,72
371,528	83,63
371,739	134,82
371,95	104,11
372,16	69,29
372,371	26,28
372,582	71,34
372,792	116,39
373,003	73,39
373,214	69,29
373,424	-10,58
373,635	126,63
373,846	69,29
374,056	71,34
374,267	112,3
374,477	97,96
374,688	151,21
374,898	134,82
375,109	104,11
375,319	79,53
375,53	95,91
375,74	81,58
375,951	91,82
376,161	63,15
376,372	167,59
376,582	130,73
376,793	153,26
377,003	104,11
377,214	122,54
377,424	87,72
377,635	73,39
377,845	83,63
378,055	138,92
378,266	102,06
378,476	77,48
378,686	186,02
378,897	163,5
379,107	122,54
379,317	134,82
379,528	120,49
379,738	102,06
379,948	147,11
380,158	91,82
380,369	59,05
380,579	69,29
380,789	87,72
380,999	11,95
381,21	108,2
381,42	44,71
381,63	48,81
381,84	79,53
382,05	85,67
382,261	73,39
382,471	71,34
382,681	77,48
382,891	132,78
383,101	75,43
383,311	91,82
383,521	95,91
383,731	149,16
383,941	108,2
384,151	151,21
384,361	134,82
384,571	112,3
384,781	147,11
384,991	147,11
385,201	143,02
385,411	145,06
385,621	134,82
385,831	161,45
386,041	77,48
386,251	106,15
386,461	91,82
386,671	118,44
386,881	143,02
387,091	188,07
387,301	204,46
387,511	196,26
387,72	194,22
387,93	173,74
388,14	186,02
388,35	302,76
388,56	243,37
388,769	405,16
388,979	313
389,189	362,15
389,399	394,92
389,609	405,16
389,818	294,57
390,028	368,29
390,238	362,15
390,447	331,43
390,657	204,46
390,867	237,22
391,076	220,84
391,286	110,25
391,496	128,68
391,705	124,58
391,915	136,87
392,125	134,82
392,334	116,39
392,544	204,46
392,753	200,36
392,963	237,22
393,172	183,98
393,382	241,32
393,591	294,57
393,801	286,37
394,01	280,23
394,22	300,71
394,429	186,02
394,639	253,61
394,848	208,55
395,058	237,22
395,267	249,51
395,477	308,9
395,686	255,65
395,895	304,81
396,105	439,97
396,314	454,31
396,524	485,03
396,733	667,3
396,942	759,46
397,152	988,83
397,361	853,66
397,57	1109,66
397,78	1033,88
397,989	1228,44
398,198	1498,77
398,407	1554,07
398,617	1404,57
398,826	1607,31
399,035	1394,33
399,244	1523,35
399,453	1484,44
399,663	1879,69
399,872	1746,58
400,081	2104,97
400,29	1777,3
400,499	1988,24
400,708	1750,67
400,917	1969,8
401,127	1693,33
401,336	2129,55
401,545	1801,87
401,754	1955,47
401,963	2043,53
402,172	2133,64
402,381	1894,03
402,59	2252,42
402,799	1834,64
403,008	1939,09
403,217	1848,97
403,426	2111,11
403,635	1980,04
403,844	2240,14
404,053	2047,63
404,262	2037,39
404,471	2117,26
404,68	2074,25
404,888	2045,58
405,097	2104,97
405,306	2043,53
405,515	2086,54
405,724	2133,64
405,933	2535,04
406,142	2207,37
406,35	2367,11
406,559	2381,45
406,768	2576
406,977	2479,75
407,185	2739,84
407,394	2545,28
407,603	2862,72
407,812	2563,72
408,02	2764,42
408,229	2428,55
408,438	2578,05
408,646	2412,17
408,855	2557,57
409,064	2520,71
409,272	2854,53
409,481	3001,98
409,69	2999,93
409,898	2848,38
410,107	3159,67
410,315	3038,84
410,524	3464,82
410,733	3085,95
410,941	3174,01
411,15	3059,32
411,358	3464,82
411,567	3176,06
411,775	3444,34
411,984	3511,93
412,192	3563,12
412,401	3313,27
412,609	3456,63
412,818	3536,5
413,026	3683,95
413,234	3509,88
413,443	3528,31
413,651	3503,73
413,86	3692,15
414,068	3507,83
414,276	3679,86
414,485	3589,75
414,693	3884,66
414,901	3763,83
415,11	3997,29
415,318	3546,74
415,526	3683,95
415,734	3655,28
415,943	3712,63
416,151	3569,27
416,359	3671,67
416,567	3556,98
416,776	3896,94
416,984	3651,19
417,192	3868,27
417,4	3530,36
417,608	3710,58
417,817	3610,23
418,025	3659,38
418,233	3743,35
418,441	3946,09
418,649	3802,74
418,857	4144,75
419,065	3827,31
419,273	3831,41
419,481	3952,24
419,689	4402,79
419,897	4216,43
420,105	4501,09
420,313	4077,16
420,521	4134,51
420,729	3939,95
420,937	4013,68
421,145	3643
421,353	4077,16
421,561	3917,42
421,769	4060,78
421,977	4308,58
422,185	3886,7
422,393	4267,63
422,601	4398,7
422,809	4126,32
423,017	4265,58
423,224	4109,93
423,432	4220,52
423,64	4124,27
423,848	4726,37
424,056	4142,7
424,263	4716,13
424,471	4136,56
424,679	4339,3
424,887	4288,11
425,094	4552,29
425,302	4134,51
425,51	4578,92
425,718	4249,19
425,925	4445,8
426,133	4206,19
426,341	4679,27
426,548	4456,04
426,756	4486,76
426,964	4249,19
427,171	4771,43
427,379	4204,14
427,586	4228,71
427,794	3886,7
428,001	4165,23
428,209	3796,59
428,417	3776,11
428,624	3567,22
428,832	3638,9
429,039	3260,02
429,247	3266,17
429,454	3688,05
429,662	4183,66
429,869	3808,88
430,076	4451,94
430,284	4023,92
430,491	4537,96
430,699	4908,64
430,906	5060,19
431,114	4839,01
431,321	5195,36
431,528	5219,93
431,736	5733,97
431,943	5684,82
432,15	5318,23
432,358	5387,86
432,565	5748,31
432,772	5486,17
432,979	6030,93
433,187	5756,5
433,394	5885,52
433,601	6182,48
433,808	6504,01
434,016	6104,65
434,223	6391,37
434,43	6772,29
434,637	6614,6
434,844	7106,11
435,052	7347,77
435,259	6848,07
435,466	7106,11
435,673	6438,47
435,88	7247,42
436,087	7024,19
436,294	7239,23
436,501	6493,77
436,708	6526,54
436,915	6665,8
437,122	6843,97
437,329	6536,77
437,537	6800,96
437,743	6821,44
437,95	6792,77
438,157	6862,4
438,364	7466,55
438,571	7155,26
438,778	7114,3
438,985	7589,43
439,192	7601,72
439,399	7618,1
439,606	7407,16
439,813	7867,95
440,02	8521,26
440,227	8212,01
440,433	8058,42
440,64	8474,15
440,847	8056,37
441,054	8277,55
441,261	8742,44
441,467	8263,21
441,674	8515,11
441,881	8504,87
442,088	8691,24
442,294	8474,15
442,501	8586,79
442,708	8476,2
442,914	9031,2
443,121	9152,03
443,328	8877,6
443,534	8959,52
443,741	8728,1
443,948	8173,1
444,154	8922,66
444,361	8511,02
444,568	8406,57
444,774	8252,97
444,981	8451,63
445,187	8523,3
445,394	8898,08
445,6	8672,81
445,807	9840,15
446,013	9047,58
446,22	9653,78
446,426	9371,16
446,633	9680,41
446,839	9743,89
447,046	9129,5
447,252	9614,87
447,459	9997,84
447,665	9305,63
447,871	9973,27
448,078	9852,44
448,284	9637,4
448,491	10055,19
448,697	10563,08
448,903	10577,42
449,11	10665,48
449,316	10006,03
449,522	10569,23
449,728	10722,82
449,935	10790,41
450,141	10378,76
450,347	10749,45
450,553	10135,06
450,76	10067,47
450,966	10352,14
451,172	10147,34
451,378	10069,52
451,584	10233,36
451,791	9946,64
451,997	10274,32
452,203	10335,76
452,409	10479,11
452,615	10419,72
452,821	10216,97
453,027	9852,44
453,233	10792,45
453,44	10165,78
453,646	10448,4
453,852	10556,94
454,058	11005,44
454,264	11156,99
454,47	11425,28
454,676	11054,59
454,882	11795,96
455,088	10739,21
455,294	11396,6
455,5	11617,79
455,705	11929,08
455,911	11908,6
456,117	11847,16
456,323	11458,04
456,529	11224,58
456,735	11716,09
456,941	11849,21
457,147	11765,24
457,352	11630,07
457,558	11290,11
457,764	11746,81
457,97	11716,09
458,176	12195,31
458,381	11685,37
458,587	11937,27
458,793	11984,37
458,999	12045,81
459,204	13229,54
459,41	13663,71
459,616	12412,4
459,821	12789,22
460,027	13233,63
460,233	13350,37
460,438	13260,26
460,644	13528,54
460,85	13125,09
461,055	13379,04
461,261	13608,41
461,466	12953,06
461,672	12811,75
461,878	14042,58
462,083	13417,95
462,289	13368,8
462,494	13389,28
462,7	13219,3
462,905	12828,13
463,111	13501,92
463,316	13919,7
463,522	14011,86
463,727	14222,8
463,932	14400,97
464,138	14546,38
464,343	14611,92
464,549	14478,8
464,754	15523,26
464,959	15388,1
465,165	15355,33
465,37	14970,31
465,575	14513,61
465,781	15377,86
465,986	15916,47
466,191	15633,85
466,397	15943,1
466,602	15279,55
466,807	15930,81
467,012	16029,11
467,218	16539,05
467,423	16434,61
467,628	17257,89
467,833	17462,69
468,038	17298,85
468,244	16625,07
468,449	17616,29
468,654	17085,86
468,859	17130,92
469,064	16985,51
469,269	16958,89
469,474	17599,9
469,679	17984,92
469,885	17816,99
470,09	18501,01
470,295	18685,33
470,5	18371,99
470,705	18681,23
470,91	18898,31
471,115	18984,33
471,32	19916,15
471,525	19475,84
471,73	19592,58
471,935	19568
472,139	20030,84
472,344	19953,02
472,549	20591,98
472,754	20530,55
472,959	20800,88
473,164	20145,53
473,369	20573,55
473,574	21284,2
473,778	21558,63
473,983	21624,16
474,188	22228,31
474,393	21120,36
474,598	21675,36
474,802	21445,99
475,007	21828,96
475,212	21953,88
475,417	21802,33
475,621	22136,15
475,826	22834,51
476,031	22728,02
476,235	23004,49
476,44	23704,9
476,645	23754,05
476,849	24030,52
477,054	24724,79
477,259	24440,12
477,463	24843,57
477,668	24765,74
477,872	25562,4
478,077	25447,72
478,282	25343,27
478,486	25169,19
478,691	25963,81
478,895	26176,8
479,1	26430,74
479,304	26762,51
479,509	26195,23
479,713	27268,36
479,918	27168,01
480,122	27223,31
480,326	27886,85
480,531	27995,39
480,735	28280,06
480,94	28499,19
481,144	29492,46
481,348	28187,9
481,553	29420,78
481,757	28585,21
481,961	29172,97
482,166	29119,73
482,37	29646,05
482,574	28738,8
482,778	29271,28
482,983	29420,78
483,187	29564,14
483,391	30471,39
483,595	29756,64
483,8	28886,26
484,004	28640,5
484,208	28308,73
484,412	27921,66
484,616	26981,65
484,821	27227,4
485,025	26393,88
485,229	26852,62
485,433	26764,56
485,637	28220,67
485,841	27868,42
486,045	28249,34
486,249	28638,45
486,453	29101,29
486,657	29521,13
486,861	30432,47
487,065	29258,99
487,269	30391,51
487,473	29879,52
487,677	30588,12
487,881	31286,48
488,085	31610,06
488,289	31732,93
488,493	32371,9
488,697	32343,23
488,901	32625,85
489,105	32513,21
489,309	33242,29
489,512	33117,36
489,716	33260,72
489,92	33064,11
490,124	32834,74
490,328	33356,97
490,531	32871,61
490,735	32414,91
490,939	33107,12
491,143	32705,72
491,346	33033,39
491,55	33651,88
491,754	33701,03
491,958	33948,84
492,161	33856,68
492,365	34186,4
492,569	34385,05
492,772	33864,87
492,976	34462,88
493,18	34839,7
493,383	35339,41
493,587	35527,82
493,79	35409,04
493,994	34890,9
494,197	35888,26
494,401	35320,98
494,605	35069,08
494,808	35593,36
495,012	35859,59
495,215	35691,66
495,419	35966,09
495,622	35941,51
495,825	35873,93
496,029	35955,85
496,232	36152,45
496,436	35865,74
496,639	36199,55
496,843	35447,95
497,046	35912,84
497,249	35638,41
497,453	35701,9
497,656	35599,5
497,859	35658,89
498,063	35654,79
498,266	36314,24
498,469	35456,14
498,673	35458,19
498,876	35343,5
499,079	35450
499,282	34677,91
499,485	34962,58
499,689	34421,92
499,892	34708,63
500,095	34327,71
500,298	34602,14
500,501	34098,34
500,705	34491,55
500,908	34407,58
501,111	34804,89
501,314	34512,03
501,517	35167,38
501,72	35437,71
501,923	34712,73
502,126	35462,29
502,329	35314,83
502,532	34722,97
502,735	34499,74
502,938	34491,55
503,141	34667,67
503,344	34931,86
503,547	34950,29
503,75	35327,12
503,953	35644,55
504,156	35884,17
504,359	35972,23
504,562	36187,27
504,765	36738,17
504,968	37145,72
505,17	36646,01
505,373	36476,03
505,576	37340,27
505,779	36480,13
505,982	36713,59
506,185	36463,74
506,387	36435,07
506,59	36369,54
506,793	36277,38
506,996	36177,03
507,198	37266,55
507,401	36570,24
507,604	36590,72
507,807	37002,36
508,009	37366,9
508,212	37162,1
508,415	37710,96
508,617	37741,67
508,82	37631,08
509,022	36818,04
509,225	37563,5
509,428	37471,34
509,63	37643,37
509,833	37885,03
510,035	38229,09
510,238	38145,12
510,44	38544,48
510,643	38800,47
510,845	38843,48
511,048	38480,99
511,25	38585,44
511,453	38343,78
511,655	38626,4
511,858	38249,57
512,06	38435,94
512,262	38003,81
512,465	38032,49
512,667	37860,46
512,87	38050,92
513,072	37561,45
513,274	37903,46
513,477	38102,12
513,679	38650,97
513,881	38693,98
514,084	38585,44
514,286	38478,94
514,488	38505,57
514,69	38941,78
514,893	38184,04
515,095	37033,08
515,297	37213,3
515,499	36279,43
515,701	36148,36
515,904	35493,01
516,106	35273,87
516,308	35744,91
516,51	35732,62
516,712	35558,54
516,914	35597,45
517,116	36064,39
517,318	36318,34
517,52	36033,67
517,722	36484,22
517,925	36736,12
518,127	37500,01
518,329	37710,96
518,531	37872,74
518,733	38280,29
518,935	39183,44
519,136	39353,43
519,338	39967,82
519,54	39304,27
519,742	39353,43
519,944	39435,34
520,146	39967,82
520,348	40111,17
520,55	40696,89
520,752	40483,9
520,954	40819,77
521,155	40178,76
521,357	41047,1
521,559	41090,1
521,761	40926,27
521,963	40703,04
522,164	41509,94
522,366	41581,62
522,568	41614,38
522,77	41614,38
522,971	42679,33
523,173	42423,33
523,375	42699,81
523,576	42255,4
523,778	42675,23
523,98	42380,32
524,181	42515,49
524,383	41802,8
524,584	42574,88
524,786	41638,96
524,988	41049,14
525,189	40129,61
525,391	39595,09
525,592	39586,89
525,794	39144,53
525,995	39347,28
526,197	39621,71
526,398	40139,85
526,6	40430,66
526,801	40389,7
527,003	40934,46
527,204	40516,67
527,406	41049,14
527,607	41745,45
527,808	41935,91
528,01	41100,34
528,211	41606,19
528,412	42355,75
528,614	41737,26
528,815	41591,86
529,016	42175,53
529,218	41593,9
529,419	42261,54
529,62	42107,94
529,822	41600,05
530,023	41649,2
530,224	42458,15
530,425	41833,52
530,626	41565,23
530,828	41016,38
531,029	42028,07
531,23	40401,99
531,431	40694,85
531,632	39869,51
531,833	39869,51
532,035	39398,48
532,236	39599,18
532,437	39992,39
532,638	39910,47
532,839	40105,03
533,04	39945,29
533,241	39496,78
533,442	40250,44
533,643	39834,7
533,844	40291,4
534,045	40428,61
534,246	40410,18
534,447	40934,46
534,648	40657,98
534,849	40639,55
535,05	40989,75
535,251	40449,09
535,451	40365,12
535,652	39656,53
535,853	39660,62
536,054	39697,48
536,255	39980,1
536,456	39263,32
536,657	40827,96
536,857	39406,67
537,058	39758,92
537,259	39720,01
537,46	39869,51
537,66	39711,82
537,861	39554,13
538,062	39089,24
538,263	39560,27
538,463	38933,59
538,664	38618,21
538,865	38300,77
539,065	38335,59
539,266	37600,36
539,466	37989,48
539,667	37031,03
539,868	37895,27
540,068	37383,28
540,269	37547,12
540,469	37735,53
540,67	37850,22
540,87	37813,35
541,071	37932,14
541,271	37383,28
541,472	37993,57
541,672	37903,46
541,873	38038,63
542,073	37155,96
542,274	37923,94
542,474	37104,76
542,675	37899,37
542,875	38558,81
543,075	37829,74
543,276	37661,8
543,476	38489,18
543,676	37956,71
543,877	38444,13
544,077	38247,52
544,277	38179,94
544,478	37993,57
544,678	38265,95
544,878	37839,98
545,078	38120,55
545,279	37428,34
545,479	37586,03
545,679	37686,38
545,879	37643,37
546,079	37309,55
546,28	37805,16
546,48	36973,69
546,68	37383,28
546,88	37407,86
547,08	37706,86
547,28	37153,91
547,48	37045,37
547,68	37399,66
547,88	36666,49
548,081	37366,9
548,281	37248,11
548,481	37061,75
548,681	37774,44
548,881	37852,27
549,081	37340,27
549,28	37045,37
549,48	37559,41
549,68	37313,65
549,88	37747,82
550,08	37500,01
550,28	37858,41
550,48	36582,52
550,68	37821,55
550,88	37108,85
551,08	37866,6
551,279	37491,82
551,479	37223,54
551,679	36920,44
551,879	36977,78
552,079	37168,24
552,278	37282,93
552,478	36938,87
552,678	37749,87
552,878	37393,52
553,077	37823,59
553,277	37483,63
553,477	37674,09
553,676	37315,7
553,876	38044,77
554,076	37788,78
554,275	37561,45
554,475	36445,31
554,674	37127,28
554,874	36873,34
555,074	37053,56
555,273	36904,06
555,473	37002,36
555,672	36574,33
555,872	36463,74
556,071	36912,25
556,271	36848,76
556,47	36648,06
556,67	36549,76
556,869	36689,02
557,068	36447,36
557,268	36007,05
557,467	35998,85
557,667	35873,93
557,866	35267,73
558,065	35128,47
558,265	34847,89
558,464	34444,45
558,663	35710,09
558,863	34374,81
559,062	35386,51
559,261	35064,98
559,461	35445,9
559,66	35271,82
559,859	36023,43
560,058	35673,23
560,258	35482,77
560,457	35450
560,656	35191,95
560,855	34458,78
561,054	35200,15
561,253	34733,21
561,453	35265,68
561,652	35499,15
561,851	35593,36
562,05	35120,27
562,249	35660,94
562,448	35781,77
562,647	35353,74
562,846	35286,16
563,045	34849,94
563,244	34800,79
563,443	35128,47
563,642	34512,03
563,841	34831,51
564,04	34383,01
564,239	35146,9
564,438	34395,29
564,637	34749,59
564,836	34225,31
565,035	33961,12
565,234	33883,3
565,432	33569,96
565,631	33803,43
565,83	34454,68
566,029	34243,74
566,228	34442,4
566,427	33946,79
566,625	34055,33
566,824	33828,01
567,023	34129,06
567,222	33057,97
567,42	33881,25
567,619	33359,02
567,818	33143,98
568,016	33762,47
568,215	34147,49
568,414	33166,51
568,612	33275,05
568,811	32877,75
569,01	32939,19
569,208	32371,9
569,407	32808,12
569,605	31796,42
569,804	32296,13
570,002	31548,62
570,201	32036,03
570,4	31915,2
570,598	31837,38
570,797	31868,1
570,995	32449,72
571,193	31622,34
571,392	32402,62
571,59	32005,31
571,789	32715,96
571,987	32380,09
572,186	32074,95
572,384	31685,83
572,582	31925,44
572,781	31884,48
572,979	31818,95
573,177	32423,1
573,376	32056,51
573,574	31388,88
573,772	31960,26
573,971	31724,74
574,169	31446,22
574,367	31034,58
574,565	31282,38
574,763	31247,57
574,962	31392,97
575,16	30790,87
575,358	31507,66
575,556	30680,28
575,754	31843,52
575,952	31266
576,151	31302,86
576,349	31003,86
576,547	31102,16
576,745	30921,94
576,943	30872,79
577,141	30840,02
577,339	30508,25
577,537	30592,22
577,735	30332,12
577,933	30489,82
578,131	30989,52
578,329	30444,76
578,527	30557,4
578,725	30778,58
578,923	31399,12
579,121	31446,22
579,319	31579,34
579,516	31618,25
579,714	31648,97
579,912	31358,16
580,11	31487,18
580,308	31710,41
580,506	32423,1
580,704	32154,82
580,901	33356,97
581,099	33017,01
581,297	33162,42
581,495	33252,53
581,692	34200,74
581,89	33481,9
582,088	34032,8
582,285	33741,99
582,483	33856,68
582,681	34108,58
582,878	34059,43
583,076	33934,5
583,274	34325,66
583,471	33402,03
583,669	33799,33
583,866	33557,67
584,064	33973,41
584,262	33348,78
584,459	33547,43
584,657	33615,02
584,854	33705,13
585,052	32429,24
585,249	32740,54
585,447	32933,04
585,644	33680,55
585,841	33682,6
586,039	34057,38
586,236	33039,54
586,434	33150,13
586,631	33172,66
586,828	33434,8
587,026	33594,54
587,223	33295,53
587,42	32183,49
587,618	32160,96
587,815	31341,77
588,012	31141,07
588,21	30207,2
588,407	30129,37
588,604	29648,1
588,801	29467,88
588,999	29603,05
589,196	29768,93
589,393	29854,95
589,59	29957,35
589,787	30282,97
589,984	30807,25
590,182	30373,08
590,379	30946,51
590,576	30743,77
590,773	30819,54
590,97	30637,27
591,167	31118,54
591,364	30368,99
591,561	31220,94
591,758	31222,99
591,955	31196,37
592,152	31204,56
592,349	31913,16
592,546	31700,17
592,743	31880,39
592,94	31202,51
593,137	31337,68
593,334	31409,36
593,531	30803,16
593,727	31091,92
593,924	31073,49
594,121	30233,82
594,318	31116,5
594,515	30493,91
594,712	30790,87
594,908	30534,87
595,105	31020,24
595,302	30887,12
595,499	31059,15
595,696	30717,14
595,892	31024,34
596,089	31282,38
596,286	30860,5
596,482	30780,63
596,679	30782,68
596,876	30815,44
597,072	30102,75
597,269	30618,84
597,466	30385,37
597,662	30289,12
597,859	30481,63
598,055	30653,65
598,252	30387,42
598,448	29857
598,645	30809,3
598,841	30459,1
599,038	30657,75
599,234	30602,46
599,431	29834,47
599,627	30250,21
599,824	30375,13
600,02	30145,76
600,217	30567,64
600,413	29793,51
600,609	30018,78
600,806	29668,58
601,002	30194,91
601,198	29191,41
601,395	29752,55
601,591	29881,57
601,787	30174,43
601,984	29723,88
602,18	30194,91
602,376	30051,55
602,572	30037,22
602,769	30254,3
602,965	30246,11
603,161	30305,5
603,357	30250,21
603,553	30309,6
603,75	30680,28
603,946	29963,49
604,142	30641,37
604,338	30358,75
604,534	30565,59
604,73	29836,52
604,926	30368,99
605,122	30223,58
605,318	30350,56
605,514	29963,49
605,71	30565,59
605,906	30147,81
606,102	30741,72
606,298	30772,44
606,494	30768,34
606,69	30889,17
606,886	31241,42
607,082	30651,61
607,278	31286,48
607,474	30450,91
607,67	30997,71
607,866	30575,83
608,062	31673,54
608,257	30637,27
608,453	30995,67
608,649	31055,06
608,845	30997,71
609,041	30743,77
609,236	31261,9
609,432	30571,74
609,628	31005,91
609,824	31010
610,019	31014,1
610,215	31087,82
610,411	32062,66
610,606	31466,7
610,802	31679,69
610,998	31194,32
611,193	31335,63
611,389	30622,94
611,584	30635,22
611,78	30635,22
611,976	31130,83
612,171	31268,05
612,367	31392,97
612,562	31304,91
612,758	30897,36
612,953	31182,03
613,149	31554,76
613,344	31159,5
613,539	32111,81
613,735	32132,29
613,93	32371,9
614,126	32089,28
614,321	32816,31
614,517	32111,81
614,712	31696,07
614,907	32203,97
615,103	32050,37
615,298	32072,9
615,493	32173,25
615,688	31368,4
615,884	32429,24
616,079	31683,78
616,274	32160,96
616,47	31857,86
616,665	32660,66
616,86	32605,37
617,055	32517,31
617,25	32857,27
617,445	33086,64
617,641	32214,21
617,836	33447,08
618,031	32593,08
618,226	32885,94
618,421	32722,1
618,616	33891,49
618,811	33518,76
619,006	33625,26
619,201	32449,72
619,396	33434,8
619,591	32978,1
619,786	33766,57
619,981	32795,83
620,176	34057,38
620,371	32603,32
620,566	32816,31
620,761	32988,34
620,956	33416,36
621,151	32193,73
621,346	32359,61
621,541	32031,94
621,735	32709,82
621,93	31767,75
622,125	32122,05
622,32	31673,54
622,515	32840,89
622,709	32378,04
622,904	32545,98
623,099	31974,59
623,294	31812,81
623,488	31466,7
623,683	31646,92
623,878	30586,07
624,072	31190,22
624,267	30754,01
624,462	30487,77
624,656	30450,91
624,851	31073,49
625,046	30887,12
625,24	30913,75
625,435	29914,34
625,629	30401,75
625,824	30815,44
626,018	30471,39
626,213	29691,11
626,407	30477,53
626,602	29183,21
626,796	29398,25
626,991	28531,96
627,185	27888,9
627,38	27440,39
627,574	27249,93
627,768	27227,4
627,963	27796,74
628,157	27878,66
628,352	27907,33
628,546	27176,2
628,74	27534,6
628,935	27063,57
629,129	27520,26
629,323	26993,93
629,517	27061,52
629,712	27176,2
629,906	27596,04
630,1	27702,53
630,294	27843,84
630,489	27407,62
630,683	28280,06
630,877	27059,47
631,071	27397,38
631,265	27462,92
631,459	27540,74
631,653	27892,99
631,848	27632,9
632,042	27585,8
632,236	28206,33
632,43	28292,35
632,624	28427,51
632,818	28065,02
633,012	27704,58
633,206	28267,77
633,4	28740,85
633,594	28144,89
633,788	28804,34
633,982	28873,97
634,176	28208,38
634,369	28806,39
634,563	29119,73
634,757	28943,6
634,951	29410,54
635,145	28650,74
635,339	29105,39
635,533	28304,63
635,726	29080,81
635,92	28255,48
636,114	29207,79
636,308	29058,29
636,501	29412,59
636,695	29476,07
636,889	29738,21
637,083	29226,22
637,276	29236,46
637,47	29091,05
637,664	29431,02
637,857	29213,93
638,051	29310,19
638,244	29517,03
638,438	29451,5
638,632	29199,6
638,825	29127,92
639,019	28724,47
639,212	28843,25
639,406	29273,32
639,599	28896,5
639,793	28740,85
639,986	28542,2
640,18	28990,7
640,373	28769,52
640,567	28175,61
640,76	28914,93
640,954	28425,46
641,147	29115,63
641,34	28933,36
641,534	29187,31
641,727	28802,29
641,92	29164,78
642,114	28736,76
642,307	28933,36
642,5	28810,48
642,694	29150,45
642,887	29134,06
643,08	29179,12
643,273	28701,94
643,467	29132,01
643,66	28677,37
643,853	28361,98
644,046	28173,56
644,239	29406,44
644,432	28845,3
644,626	28867,83
644,819	28126,46
645,012	28343,55
645,205	28065,02
645,398	27981,06
645,591	27503,88
645,784	27798,79
645,977	27514,12
646,17	28204,28
646,363	27856,13
646,556	27573,51
646,749	27628,81
646,942	27813,12
647,135	27557,13
647,328	27723,01
647,521	27630,85
647,714	27383,05
647,907	27784,45
648,099	27614,47
648,292	27032,85
648,485	27323,66
648,678	26506,52
648,871	26717,46
649,064	26703,12
649,256	27090,19
649,449	26522,9
649,642	27116,81
649,835	27096,33
650,027	27362,57
650,22	26946,83
650,413	27467,02
650,605	27309,32
650,798	26936,59
650,991	26459,41
651,183	26656,02
651,376	26297,63
651,568	26580,25
651,761	27055,37
651,954	27340,04
652,146	27366,67
652,339	27092,24
652,531	26782,99
652,724	27159,82
652,916	26682,64
653,109	27516,17
653,301	27546,89
653,494	27073,81
653,686	26617,11
653,879	27405,58
654,071	26610,96
654,263	26914,06
654,456	26608,92
654,648	26553,62
654,84	25959,71
655,033	25863,46
655,225	24802,61
655,417	24182,07
655,61	23678,27
655,802	23567,68
655,994	22881,61
656,186	23237,96
656,379	23168,33
656,571	23862,59
656,763	24085,82
656,955	24362,29
657,148	25003,31
657,34	25517,35
657,532	25048,36
657,724	25099,56
657,916	25244,97
658,108	25820,45
658,3	25349,42
658,492	25558,31
658,684	25390,38
658,876	25437,48
659,068	25900,32
659,26	26359,06
659,452	26871,06
659,644	26758,42
659,836	26221,85
660,028	27008,27
660,22	26647,83
660,412	27272,46
660,604	26690,84
660,796	26787,09
660,988	26389,78
661,18	26594,58
661,372	26594,58
661,563	27276,55
661,755	26885,39
661,947	27305,23
662,139	26926,35
662,331	27272,46
662,522	26801,43
662,714	27348,23
662,906	26815,76
663,097	26723,6
663,289	26072,35
663,481	26664,21
663,673	26510,61
663,864	26754,32
664,056	26363,16
664,247	26586,39
664,439	25763,11
664,631	26146,08
664,822	26748,18
665,014	26340,63
665,205	26666,26
665,397	26557,72
665,588	26268,95
665,78	26285,34
665,971	26094,88
666,163	26402,07
666,354	26096,92
666,546	26789,14
666,737	26107,16
666,929	26383,64
667,12	26189,08
667,311	26076,44
667,503	25214,25
667,694	25875,74
667,885	25601,32
668,077	26199,32
668,268	26137,88
668,459	26000,67
668,651	25941,28
668,842	26291,48
669,033	25703,71
669,224	26051,87
669,416	26006,81
669,607	26285,34
669,798	25543,97
669,989	25855,26
670,18	25738,53
670,371	25871,65
670,563	25431,33
670,754	25425,19
670,945	25455,91
671,136	25939,23
671,327	25351,46
671,518	24841,52
671,709	24786,22
671,9	25670,95
672,091	25296,17
672,282	25677,09
672,473	25333,03
672,664	26033,44
672,855	25001,26
673,046	25730,34
673,237	25335,08
673,428	24937,77
673,619	24718,64
673,809	24995,12
674	24737,07
674,191	25359,66
674,382	24923,44
674,573	24862
674,764	24163,64
674,954	24669,49
675,145	24483,13
675,336	25093,42
675,527	24943,92
675,717	25212,2
675,908	24360,25
676,099	24821,04
676,289	25095,47
676,48	25095,47
676,671	24804,66
676,861	24868,14
677,052	23995,71
677,243	24632,63
677,433	24313,14
677,624	24952,11
677,814	24380,73
678,005	24864,05
678,195	24624,43
678,386	25371,94
678,576	24630,58
678,767	24233,27
678,957	24319,29
679,148	24923,44
679,338	24759,6
679,529	24864,05
679,719	24515,89
679,909	24780,08
680,1	24046,91
680,29	24765,74
680,481	24757,55
680,671	24354,1
680,861	24061,24
681,052	24710,45
681,242	24630,58
681,432	24945,97
681,622	24106,3
681,813	24159,55
682,003	24436,02
682,193	24374,58
682,383	24423,73
682,573	24223,03
682,764	23754,05
682,954	24347,96
683,144	23731,52
683,334	23661,89
683,524	23827,78
683,714	23674,18
683,904	23678,27
684,094	23862,59
684,284	24069,44
684,474	24438,07
684,664	24153,4
684,854	23897,41
685,044	23653,7
685,234	23024,97
685,424	22678,86
685,614	23500,1
685,804	22756,69
685,994	22236,5
686,184	20508,02
686,374	19076,49
686,564	17253,8
686,753	16154,04
686,943	14337,49
687,133	14157,27
687,323	13725,15
687,513	14101,97
687,702	14603,72
687,892	14837,19
688,082	14992,84
688,272	15361,47
688,461	15394,24
688,651	15193,54
688,841	14566,86
689,03	14749,13
689,22	14480,85
689,41	15031,75
689,599	14716,36
689,789	15533,5
689,979	15064,52
690,168	15695,29
690,358	15941,05
690,547	16674,22
690,737	17010,09
690,926	17526,18
691,116	17024,42
691,305	18015,64
691,495	17921,43
691,684	18269,59
691,874	18412,95
692,063	18861,45
692,252	18830,73
692,442	19596,67
692,631	19252,61
692,82	19658,11
693,01	19404,16
693,199	19611,01
693,388	19027,34
693,578	19598,72
693,767	19551,62
693,956	19481,99
694,146	19666,3
694,335	19531,14
694,524	19785,08
694,713	20303,22
694,902	19926,39
695,092	20309,36
695,281	19684,73
695,47	20043,13
695,659	20155,77
695,848	20344,18
696,037	20391,28
696,226	20657,52
696,415	20618,61
696,604	21128,55
696,793	20573,55
696,982	21605,73
697,171	21032,3
697,36	21552,48
697,549	20909,42
697,738	21177,7
697,927	20655,47
698,116	21181,8
698,305	20657,52
698,494	20671,86
698,683	20231,54
698,872	20475,25
699,061	20379
699,25	20436,34
699,438	20491,63
699,627	20946,28
699,816	20632,94
700,005	20401,52
700,193	20352,37
700,382	20528,5
700,571	20129,14
700,76	20153,72
700,948	20116,86
701,137	19830,14
701,326	19471,75
701,514	20008,31
701,703	19684,73
701,892	19291,52
702,08	19488,13
702,269	19492,23
702,457	19146,12
702,646	19697,02
702,834	19254,66
703,023	19312
703,212	19963,26
703,4	20282,74
703,589	20196,73
703,777	20895,08
703,965	20026,75
704,154	20311,41
704,342	20270,45
704,531	20426,1
704,719	19996,03
704,907	20626,8
705,096	19815,8
705,284	20245,88
705,472	19713,41
705,661	19957,11
705,849	20352,37
706,037	20671,86
706,226	20198,77
706,414	20391,28
706,602	20254,07
706,79	20497,78
706,979	20065,66
707,167	20135,29
707,355	19451,27
707,543	20555,12
707,731	20600,18
707,919	21155,18
708,107	20411,76
708,296	20516,21
708,484	19979,64
708,672	20155,77
708,86	20000,12
709,048	20450,67
709,236	20391,28
709,424	20077,94
709,612	20045,18
709,8	20032,89
709,988	19838,33
710,176	20131,19
710,364	19707,26
710,551	19471,75
710,739	19666,3
710,927	19938,68
711,115	19520,9
711,303	19805,56
711,491	19119,49
711,679	19346,82
711,866	19150,21
712,054	19701,12
712,242	19146,12
712,43	19662,21
712,617	19385,73
712,805	19289,48
712,993	19199,37
713,181	19099,02
713,368	18773,39
713,556	19469,7
713,744	19238,28
713,931	19942,78
714,119	19238,28
714,306	19213,7
714,494	18757
714,682	19029,38
714,869	18996,62
715,057	18937,23
715,244	18279,83
715,432	18568,59
715,619	18105,75
715,807	18711,95
715,994	18167,19
716,182	17931,67
716,369	17151,4
716,556	16922,02
716,744	16256,43
716,931	15939
717,119	15168,96
717,306	15240,64
717,493	14634,44
717,681	14417,36
717,868	13788,63
718,055	13868,5
718,242	13329,89
718,43	13497,82
718,617	12922,34
718,804	12772,84
718,991	12652,01
719,179	12602,86
719,366	12119,54
719,553	12813,8
719,74	12027,38
719,927	12434,92
720,114	11750,9
720,301	12389,87
720,488	12250,61
720,676	12674,54
720,863	12881,38
721,05	13376,99
721,237	13905,37
721,424	14327,25
721,611	14755,27
721,798	14798,28
721,985	14360,02
722,172	14642,64
722,358	14996,93
722,545	15089,09
722,732	14718,41
722,919	14765,51
723,106	14185,94
723,293	14144,98
723,48	13673,95
723,667	13815,26
723,853	13151,71
724,04	13284,83
724,227	13258,21
724,414	13389,28
724,6	13346,27
724,787	13594,08
724,974	13139,43
725,161	13567,45
725,347	12711,4
725,534	13258,21
725,72	13194,72
725,907	13536,73
726,094	13481,44
726,28	13454,81
726,467	12563,95
726,653	12725,74
726,84	12772,84
727,027	13090,27
727,213	12520,94
727,4	12682,73
727,586	12529,13
727,773	12574,19
727,959	12389,87
728,145	12938,73
728,332	12574,19
728,518	12766,7
728,705	12985,83
728,891	12797,42
729,077	12449,26
729,264	12930,53
729,45	12828,13
729,636	13077,99
729,823	12955,11
730,009	13153,76
730,195	12934,63
730,382	13235,68
730,568	12738,02
730,754	12781,03
730,94	12473,84
731,126	13057,51
731,313	12873,19
731,499	13282,78
731,685	13401,57
731,871	13415,9
732,057	13247,97
732,243	13518,3
732,429	13534,68
732,615	14091,73
732,801	14097,88
732,987	14187,99
733,173	13962,71
733,359	14636,49
733,545	14067,16
733,731	14417,36
733,917	14634,44
734,103	15062,47
734,289	14554,57
734,475	14716,36
734,661	14595,53
734,847	14833,1
735,033	14837,19
735,219	14826,95
735,404	14902,73
735,59	14783,95
735,776	14859,72
735,962	14867,91
736,148	14935,49
736,333	14607,82
736,519	14501,33
736,705	14683,59
736,89	14110,16
737,076	14718,41
737,262	14677,45
737,447	14900,68
737,633	14687,69
737,819	15160,77
738,004	14603,72
738,19	14978,5
738,375	14736,84
738,561	14732,75
738,747	14161,36
738,932	14634,44
739,118	14433,74
739,303	14380,5
739,489	13972,95
739,674	14534,09
739,859	14740,94
740,045	14753,23
740,23	14654,92
740,416	14564,81
740,601	14347,73
740,786	13981,14
740,972	13766,1
741,157	14376,4
741,342	14036,44
741,528	14478,8
741,713	14065,11
741,898	13995,48
742,084	14351,82
742,269	14446,03
742,454	14163,41
742,639	14362,06
742,824	14257,62
743,01	14310,86
743,195	14413,26
743,38	14738,89
743,565	14255,57
743,75	14478,8
743,935	14198,23
744,12	14720,46
744,305	14007,76
744,49	13829,59
744,675	13872,6
744,86	14372,3
745,045	14257,62
745,23	14077,4
745,415	14040,53
745,6	13929,94
745,785	13764,06
745,97	13975
746,155	13794,78
746,34	13856,22
746,525	13651,42
746,71	14147,03
746,895	13934,04
747,079	14171,6
747,264	13589,98
747,449	13807,06
747,634	13368,8
747,819	13850,07
748,003	13395,42
748,188	13821,4
748,373	13131,23
748,557	13555,16
748,742	13266,4
748,927	13235,68
749,111	12924,39
749,296	13129,19
749,481	13272,54
749,665	13182,43
749,85	12627,43
750,034	12961,25
750,219	13055,46
750,404	13129,19
750,588	12666,35
750,773	13194,72
750,957	12774,89
751,141	12785,13
751,326	12602,86
751,51	13389,28
751,695	12754,41
751,879	13077,99
752,064	12635,63
752,248	12918,25
752,432	12531,18
752,617	12764,65
752,801	12643,82
752,985	12727,78
753,17	12844,52
753,354	12711,4
753,538	12535,28
753,722	12813,8
753,907	12580,33
754,091	12838,37
754,275	12467,69
754,459	12801,51
754,643	12541,42
754,828	12645,87
755,012	12088,82
755,196	12244,46
755,38	11351,55
755,564	12013,04
755,748	12121,59
755,932	12287,47
756,116	11789,81
756,3	12078,58
756,484	11857,4
756,668	12162,55
756,852	11859,45
757,036	12051,95
757,22	11642,36
757,404	11767,29
757,588	11388,41
757,772	11726,33
757,956	11656,7
758,14	11970,04
758,323	11621,88
758,507	11709,94
758,691	11369,98
758,875	11216,38
759,059	10321,42
759,242	9756,18
759,426	8390,19
759,61	7274,04
759,794	5912,14
759,977	4388,46
760,161	2932,35
760,345	1980,04
760,528	1293,97
760,712	786,08
760,895	464,55
761,079	374,44
761,263	298,66
761,446	321,19
761,63	380,58
761,813	568,99
761,997	505,51
762,18	673,44
762,364	540,32
762,547	542,37
762,731	272,04
762,914	226,98
763,098	177,83
763,281	67,24
763,464	110,25
763,648	181,93
763,831	120,49
764,015	134,82
764,198	206,5
764,381	366,25
764,564	368,29
764,748	462,5
764,931	693,92
765,114	870,05
765,297	1201,82
765,481	1736,34
765,664	1980,04
765,847	2682,5
766,03	2795,14
766,213	3563,12
766,397	3763,83
766,58	4499,05
766,763	4650,6
766,946	5459,54
767,129	5764,69
767,312	6983,23
767,495	7579,19
767,678	7931,44
767,861	8322,6
768,044	8971,81
768,227	9004,58
768,41	9315,87
768,593	9516,57
768,776	9971,22
768,959	10114,58
769,142	10489,35
769,324	10333,71
769,507	10915,33
769,69	10737,16
769,873	11077,12
770,056	10819,08
770,239	11085,31
770,421	11146,75
770,604	11845,11
770,787	11486,72
770,97	11759,1
771,152	11691,51
771,335	12473,84
771,518	12203,5
771,7	12377,58
771,883	12332,53
772,066	12609
772,248	12244,46
772,431	12944,87
772,613	12781,03
772,796	12738,02
772,978	12746,22
773,161	13219,3
773,343	12570,09
773,526	12715,5
773,708	12678,63
773,891	13004,26
774,073	12711,4
774,256	12809,7
774,438	12908,01
774,621	12670,44
774,803	12580,33
774,985	12770,79
775,168	12871,14
775,35	13153,76
775,532	13446,62
775,715	13469,15
775,897	13028,84
776,079	13262,3
776,261	13202,91
776,444	13280,74
776,626	13376,99
776,808	13262,3
776,99	12979,68
777,173	13202,91
777,355	12783,08
777,537	13196,77
777,719	12846,57
777,901	13147,62
778,083	12570,09
778,265	12641,77
778,447	12330,48
778,629	12471,79
778,811	12592,62
778,993	12750,31
779,175	12695,02
779,357	13061,6
779,539	12928,49
779,721	12967,4
779,903	12715,5
780,085	12791,27
780,267	12381,68
780,449	12439,02
780,631	11838,97
780,812	12430,83
780,994	12434,92
781,176	12664,3
781,358	12404,21
781,54	12695,02
781,721	12482,03
781,903	12529,13
782,085	11873,78
782,267	12187,12
782,448	11767,29
782,63	12160,5
782,812	11849,21
782,993	12129,78
783,175	11793,91
783,357	11580,92
783,538	11521,53
783,72	11742,71
783,901	11109,89
784,083	11238,91
784,264	11128,32
784,446	11519,48
784,627	11216,38
784,809	11537,91
784,99	11359,74
785,172	11621,88
785,353	11111,94
785,535	11275,77
785,716	11253,25
785,897	11224,58
786,079	10896,9
786,26	11091,46
786,441	11048,45
786,623	11138,56
786,804	10737,16
786,985	10919,43
787,167	10391,05
787,348	10515,98
787,529	10645
787,71	11126,27
787,891	10513,93
788,073	10542,6
788,254	9901,59
788,435	9948,69
788,616	9758,23
788,797	10116,62
788,978	9971,22
789,159	9852,44
789,34	9578,01
789,522	9610,78
789,703	9514,52
789,884	9629,21
790,065	9475,61
790,246	9545,24
790,427	9614,87
790,607	9469,47
790,788	9244,19
790,969	9379,36
791,15	8873,51
791,331	9303,58
791,512	8951,33
791,693	8949,28
791,874	8934,95
792,054	9272,86
792,235	9121,31
792,416	9070,11
792,597	8619,56
792,778	8664,61
792,958	8390,19
793,139	8619,56
793,32	8498,73
793,5	8701,48
793,681	8332,84
793,862	8885,8
794,042	8648,23
794,223	8738,34
794,404	8425
794,584	8799,78
794,765	8508,97
794,945	8631,85
795,126	7960,11
795,306	8230,45
795,487	7962,16
795,667	8437,29
795,848	8336,94
796,028	8341,04
796,209	8351,28
796,389	8332,84
796,57	7951,92
796,75	8394,28
796,93	8199,73
797,111	8478,25
797,291	7902,77
797,471	7951,92
797,652	7898,67
797,832	8345,13
798,012	8019,5
798,192	8244,78
798,373	8076,85
798,553	8185,39
798,733	7923,25
798,913	8091,18
799,093	8023,6
799,274	8142,38
799,454	7581,24
799,634	7937,59
799,814	7427,64
799,994	7548,47
800,174	7525,94
800,354	7800,37
800,534	7323,19
800,714	7775,8
800,894	7493,18
801,074	7837,24
801,254	7484,98
801,434	7409,21
801,614	7224,89
801,794	7525,94
801,974	7386,68
802,154	7495,22
802,334	7419,45
802,514	7368,25
802,693	7241,28
802,873	7319,1
803,053	7259,71
803,233	7120,45
803,413	6743,62
803,592	6800,96
803,772	6712,9
803,952	6979,14
804,131	6741,57
804,311	6770,24
804,491	6624,84
804,67	6749,76
804,85	6686,28
805,03	7108,16
805,209	6663,75
805,389	6815,3
805,568	6538,82
805,748	6993,47
805,928	6858,31
806,107	7165,5
806,287	6573,64
806,466	6901,31
806,646	6565,45
806,825	6886,98
807,004	6651,46
807,184	6637,13
807,363	6436,42
807,543	6596,17
807,722	6262,35
807,901	6633,03
808,081	6379,08
808,26	6583,88
808,439	6231,63
808,619	6452,81
808,798	6047,31
808,977	6168,14
809,156	6102,61
809,336	6383,18
809,515	5684,82
809,694	6002,26
809,873	5717,59
810,052	6055,5
810,231	5432,92
810,411	5719,64
810,59	5650
810,769	5795,41
810,948	5836,37
811,127	5836,37
811,306	5654,1
811,485	5750,35
811,664	5377,62
811,843	5733,97
812,022	5379,67
812,201	5611,09
812,38	5402,2
812,559	5537,37
812,737	5285,47
812,916	5514,84
813,095	5262,94
813,274	5146,2
813,453	4888,16
813,632	5125,72
813,811	4621,92
813,989	4701,79
814,168	4378,22
814,347	4497
814,526	4032,11
814,704	4345,45
814,883	4028,01
815,062	4345,45
815,24	4118,12
815,419	3966,57
815,598	3370,62
815,776	3669,62
815,955	3516,02
816,133	3864,18
816,312	3520,12
816,49	3454,58
816,669	2928,25
816,847	3317,37
817,026	3051,13
817,204	2991,74
817,383	2952,83
817,561	3303,03
817,74	3036,8
817,918	3133,05
818,097	3049,08
818,275	3257,98
818,453	2938,49
818,632	3120,76
818,81	2788,99
818,988	2983,55
819,167	2952,83
819,345	2936,45
819,523	2840,19
819,701	2993,79
819,879	3016,32
820,058	3057,28
820,236	2895,49
820,414	3165,82
820,592	3092,09
820,77	3401,33
820,948	3165,82
821,127	3354,23
821,305	3556,98
821,483	3759,73
821,661	3487,35
821,839	3839,6
822,017	3436,15
822,195	3577,46
822,373	3417,72
822,551	3665,52
822,729	3298,94
822,907	3155,58
823,085	2569,86
823,262	2530,95
823,44	2119,31
823,618	2147,98
823,796	1863,31
823,974	2170,51
824,152	2156,17
824,329	2426,5
824,507	2602,63
824,685	3032,7
824,863	3075,71
825,04	3309,18
825,218	3118,72
825,396	3298,94
825,574	3169,91
825,751	3151,48
825,929	3124,86
826,107	3286,65
826,284	3098,24
826,462	3296,89
826,639	3124,86
826,817	3255,93
826,994	3169,91
827,172	3485,3
827,349	3360,38
827,527	3518,07
827,704	2930,3
827,882	2891,39
828,059	2795,14
828,237	3028,6
828,414	2526,85
828,591	2784,9
828,769	2576
828,946	2393,73
829,124	2430,6
829,301	2569,86
829,478	2604,67
829,655	2811,52
829,833	2520,71
830,01	2737,79
830,187	2578,05
830,364	2666,11
830,542	2547,33
830,719	2582,15
830,896	2395,78
831,073	2524,8
831,25	2467,46
831,427	2625,15
831,604	2619,01
831,782	2678,4
831,959	2403,97
832,136	2586,24
832,313	2461,32
832,49	2422,41
832,667	2428,55
832,844	2551,43
833,021	2332,3
833,198	2551,43
833,374	2289,29
833,551	2395,78
833,728	2227,85
833,905	2639,49
834,082	2469,51
834,259	2600,58
834,436	2451,08
834,612	2627,2
834,789	2479,75
834,966	2772,61
835,143	2598,53
835,319	2725,51
835,496	2655,87
835,673	2752,13
835,85	2608,77
836,026	2780,8
836,203	2442,89
836,38	2645,63
836,556	2430,6
836,733	2582,15
836,909	2381,45
837,086	2623,11
837,262	2500,23
837,439	2629,25
837,616	2655,87
837,792	2571,91
837,968	2647,68
838,145	2832
838,321	2524,8
838,498	2633,35
838,674	2285,19
838,851	2293,38
839,027	2344,58
839,203	2385,54
839,38	2494,08
839,556	2612,87
839,732	2483,84
839,909	2559,62
840,085	2496,13
840,261	2489,99
840,437	2330,25
840,614	2481,8
840,79	2205,32
840,966	2391,69
841,142	2414,21
841,318	2729,6
841,494	2592,39
841,671	2670,21
841,847	2533
842,023	2524,8
842,199	2358,92
842,375	2424,45
842,551	2233,99
842,727	2541,19
842,903	2250,38
843,079	2354,82
843,255	2059,92
843,431	2260,62
843,607	2072,2
843,783	2330,25
843,959	2098,83
844,134	2166,41
844,31	2190,99
844,486	2080,39
844,662	1939,09
844,838	2197,13
845,013	1980,04
845,189	1908,37
845,365	1947,28
845,541	2168,46
845,716	2035,34
845,892	2178,7
846,068	2012,81
846,244	2115,21
846,419	1959,56
846,595	1926,8
846,77	1816,21
846,946	1912,46
847,122	1857,17
847,297	1898,13
847,473	1836,69
847,648	2084,49
847,824	1848,97
847,999	1900,17
848,175	1947,28
848,35	1984,14
848,526	1754,77
848,701	1724,05
848,876	1730,19
849,052	1898,13
849,227	1826,45
849,403	1691,28
849,578	1433,24
849,753	1666,71
849,929	1595,03
850,104	1699,47
850,279	1396,37
850,454	1449,62
850,63	1171,1
850,805	1361,56
850,98	1236,63
851,155	1240,73
851,33	1330,84
851,505	1271,45
851,681	1396,37
851,856	1357,46
852,031	1287,83
852,206	1564,31
852,381	1431,19
852,556	1404,57
852,731	1283,74
852,906	1439,38
853,081	1382,04
853,256	1556,11
853,431	1468,05
853,606	1554,07
853,781	1349,27
853,956	1494,68
854,131	1199,77
854,305	1336,98
854,48	951,96
854,655	976,54
854,83	698,02
855,005	808,61
855,18	712,35
855,354	796,32
855,529	753,31
855,704	863,9
855,879	1070,75
856,053	1107,61
856,228	1058,46
856,403	1109,66
856,577	1072,79
856,752	1330,84
856,926	1142,43
857,101	1271,45
857,276	1101,47
857,45	1271,45
857,625	1097,37
857,799	1040,03
857,974	970,4
858,148	1078,94
858,323	1072,79
858,497	1240,73
858,672	968,35
858,846	1042,07
859,02	958,11
859,195	1007,26
859,369	892,57
859,543	1035,93
859,718	847,52
859,892	1076,89
860,066	882,33
860,241	872,09
860,415	851,61
860,589	994,97
860,763	802,46
860,938	728,74
861,112	806,56
861,286	1050,27
861,46	857,76
861,634	824,99
861,808	947,87
861,982	859,81
862,157	767,65
862,331	741,02
862,505	712,35
862,679	906,91
862,853	771,74
863,027	882,33
863,201	663,2
863,375	808,61
863,549	798,37
863,722	802,46
863,896	738,98
864,07	931,48
864,244	847,52
864,418	757,41
864,592	548,51
864,766	671,39
864,939	612
865,113	724,64
865,287	636,58
865,461	636,58
865,634	546,47
865,808	698,02
865,982	640,67
866,156	734,88
866,329	599,71
866,503	577,19
866,676	544,42
866,85	472,74
867,024	439,97
867,197	405,16
867,371	214,7
867,544	429,73
867,718	331,43
867,891	491,17
868,065	480,93
868,238	399,01
868,412	485,03
868,585	505,51
868,759	409,25
868,932	519,84
869,105	450,21
869,279	482,98
869,452	515,75
869,625	476,84
869,799	446,12
869,972	489,12
870,145	349,86
870,319	528,03
870,492	388,77
870,665	482,98
870,838	425,64
871,011	431,78
871,185	382,63
871,358	489,12
871,531	405,16
871,704	446,12
871,877	452,26
872,05	362,15
872,223	343,72
872,396	335,53
872,569	399,01
872,742	431,78
872,915	315,05
873,088	360,1
873,261	259,75
873,434	460,45
873,607	313
873,78	341,67
873,953	247,46
874,126	366,25
874,299	235,18
874,471	294,57
874,644	317,09
874,817	204,46
874,99	241,32
875,163	292,52
875,335	265,89
875,508	296,61
875,681	241,32
875,853	337,57
876,026	237,22
876,199	413,35
876,371	374,44
876,544	206,5
876,717	274,09
876,889	165,54
877,062	284,33
877,234	353,96
877,407	241,32
877,579	265,89
877,752	304,81
877,924	222,89
878,097	243,37
878,269	257,7
878,442	245,41
878,614	192,17
878,786	177,83
878,959	175,78
879,131	251,56
879,303	222,89
879,476	224,94
879,648	112,3
879,82	251,56
879,993	202,41
880,165	229,03
880,337	224,94
880,509	143,02
880,681	251,56
880,854	222,89
881,026	161,45
881,198	239,27
881,37	243,37
881,542	128,68
881,714	138,92
881,886	241,32
882,058	206,5
882,23	226,98
882,402	261,8
882,574	163,5
882,746	212,65
882,918	214,7
883,09	177,83
883,262	126,63
883,434	251,56
883,606	95,91
883,778	192,17
883,95	188,07
884,122	194,22
884,293	280,23
884,465	165,54
884,637	136,87
884,809	128,68
884,98	214,7
885,152	116,39
885,324	114,34
885,496	159,4
885,667	163,5
885,839	231,08
886,011	165,54
886,182	171,69
886,354	151,21
886,525	108,2
886,697	183,98
886,869	126,63
887,04	81,58
887,212	163,5
887,383	186,02
887,555	153,26
887,726	110,25
887,897	147,11
888,069	153,26
888,24	130,73
888,412	145,06
888,583	179,88
888,754	97,96
888,926	95,91
889,097	134,82
889,268	104,11
889,44	106,15
889,611	63,15
889,782	165,54
889,953	169,64
890,125	81,58
890,296	157,35
890,467	140,97
890,638	151,21
890,809	63,15
890,98	85,67
891,151	128,68
891,323	83,63
891,494	104,11
891,665	71,34
891,836	18,09
892,007	67,24
892,178	89,77
892,349	143,02
892,52	71,34
892,691	44,71
892,862	169,64
893,032	24,23
893,203	91,82
893,374	134,82
893,545	95,91
893,716	91,82
893,887	36,52
894,057	83,63
894,228	77,48
894,399	83,63
894,57	48,81
894,74	63,15
894,911	75,43
895,082	140,97
895,253	44,71
895,423	67,24
895,594	50,86
895,764	50,86
895,935	3,75
896,106	89,77
896,276	48,81
896,447	38,57
896,617	30,38
896,788	61,1
896,958	95,91
897,129	-18,77
897,299	116,39
897,47	13,99
897,64	81,58
897,81	-4,44
897,981	124,58
898,151	13,99
898,322	5,8
898,492	34,47
898,662	69,29
898,832	32,43
899,003	83,63
899,173	54,95
899,343	36,52
899,513	16,04
