Data from sun_USB4F104151__0__16-39-31-696.txt Node

Date: Thu Mar 07 16:39:31 EST 2024
User: lauri
Spectrometer: USB4F10415
Trigger mode: 4
Integration Time (sec): 2,000000E-3
Scans to average: 1
Electric dark correction enabled: true
Nonlinearity correction enabled: false
Boxcar width: 0
XAxis mode: Wavelengths
Number of Pixels in Spectrum: 3648
>>>>>Begin Spectral Data<<<<<
178,204	35,84
178,424	35,84
178,644	35,84
178,864	-29,7
179,084	13,31
179,304	-15,36
179,524	-1,02
179,744	-23,55
179,964	-25,6
180,184	80,89
180,404	-9,22
180,624	-35,84
180,844	41,98
181,064	25,6
181,283	-37,89
181,503	-17,41
181,723	17,41
181,943	-48,13
182,163	19,46
182,383	-52,22
182,602	78,85
182,822	21,5
183,042	21,5
183,262	-11,26
183,482	-70,65
183,701	27,65
183,921	-41,98
184,141	5,12
184,361	39,94
184,58	13,31
184,8	41,98
185,02	-21,5
185,239	29,7
185,459	21,5
185,679	-29,7
185,898	27,65
186,118	-9,22
186,338	-39,94
186,557	19,46
186,777	-7,17
186,997	29,7
187,216	5,12
187,436	44,03
187,655	-60,42
187,875	66,56
188,095	-1,02
188,314	11,26
188,534	-21,5
188,753	9,22
188,973	-23,55
189,192	-25,6
189,412	9,22
189,631	50,18
189,851	-3,07
190,07	21,5
190,29	66,56
190,509	-33,79
190,729	33,79
190,948	-39,94
191,168	19,46
191,387	-31,74
191,607	-35,84
191,826	84,99
192,045	56,32
192,265	-25,6
192,484	68,61
192,704	-15,36
192,923	21,5
193,142	21,5
193,362	-7,17
193,581	50,18
193,8	-17,41
194,02	11,26
194,239	-7,17
194,458	152,57
194,678	56,32
194,897	-41,98
195,116	-44,03
195,335	-66,56
195,555	44,03
195,774	-21,5
195,993	46,08
196,212	33,79
196,432	-9,22
196,651	-33,79
196,87	11,26
197,089	-64,51
197,308	-5,12
197,528	-1,02
197,747	27,65
197,966	-31,74
198,185	58,37
198,404	44,03
198,623	9,22
198,842	52,22
199,062	-23,55
199,281	-27,65
199,5	17,41
199,719	29,7
199,938	27,65
200,157	-39,94
200,376	-72,7
200,595	-13,31
200,814	13,31
201,033	33,79
201,252	78,85
201,471	31,74
201,69	-13,31
201,909	13,31
202,128	-80,89
202,347	62,46
202,566	-1,02
202,785	-21,5
203,004	33,79
203,223	-17,41
203,442	15,36
203,661	13,31
203,879	29,7
204,098	1,02
204,317	-39,94
204,536	-44,03
204,755	-44,03
204,974	62,46
205,193	-44,03
205,411	-5,12
205,63	17,41
205,849	11,26
206,068	1,02
206,287	-3,07
206,505	19,46
206,724	11,26
206,943	21,5
207,162	19,46
207,381	-19,46
207,599	-15,36
207,818	-44,03
208,037	-11,26
208,255	-19,46
208,474	-52,22
208,693	-29,7
208,911	9,22
209,13	-13,31
209,349	60,42
209,567	-54,27
209,786	23,55
210,005	13,31
210,223	1,02
210,442	-1,02
210,661	46,08
210,879	23,55
211,098	44,03
211,316	74,75
211,535	-19,46
211,753	11,26
211,972	-25,6
212,191	-7,17
212,409	29,7
212,628	-21,5
212,846	25,6
213,065	-23,55
213,283	-21,5
213,502	54,27
213,72	7,17
213,938	-5,12
214,157	13,31
214,375	19,46
214,594	-21,5
214,812	-9,22
215,031	-15,36
215,249	-9,22
215,467	58,37
215,686	-5,12
215,904	1,02
216,122	-1,02
216,341	-17,41
216,559	-5,12
216,778	-21,5
216,996	48,13
217,214	9,22
217,432	19,46
217,651	9,22
217,869	-17,41
218,087	9,22
218,306	25,6
218,524	-64,51
218,742	-54,27
218,96	-21,5
219,179	66,56
219,397	39,94
219,615	9,22
219,833	31,74
220,051	56,32
220,27	-15,36
220,488	25,6
220,706	-23,55
220,924	-3,07
221,142	17,41
221,36	-19,46
221,578	-31,74
221,796	9,22
222,015	35,84
222,233	72,7
222,451	3,07
222,669	-21,5
222,887	13,31
223,105	19,46
223,323	-5,12
223,541	35,84
223,759	25,6
223,977	64,51
224,195	33,79
224,413	-21,5
224,631	11,26
224,849	3,07
225,067	84,99
225,285	-17,41
225,503	15,36
225,721	-11,26
225,939	31,74
226,157	-31,74
226,375	11,26
226,592	9,22
226,81	-44,03
227,028	-84,99
227,246	103,42
227,464	62,46
227,682	-15,36
227,9	23,55
228,117	13,31
228,335	19,46
228,553	-41,98
228,771	5,12
228,989	9,22
229,206	-23,55
229,424	-29,7
229,642	-11,26
229,86	11,26
230,077	3,07
230,295	-44,03
230,513	-21,5
230,731	23,55
230,948	13,31
231,166	-13,31
231,384	-13,31
231,601	41,98
231,819	-23,55
232,037	21,5
232,254	54,27
232,472	-62,46
232,689	-21,5
232,907	50,18
233,125	-33,79
233,342	48,13
233,56	29,7
233,777	52,22
233,995	-33,79
234,213	-3,07
234,43	-70,65
234,648	21,5
234,865	-50,18
235,083	9,22
235,3	19,46
235,518	-3,07
235,735	-50,18
235,953	62,46
236,17	-50,18
236,388	-121,85
236,605	-37,89
236,822	-54,27
237,04	19,46
237,257	-21,5
237,475	-7,17
237,692	-56,32
237,909	-9,22
238,127	-29,7
238,344	-7,17
238,562	-31,74
238,779	9,22
238,996	-66,56
239,214	-5,12
239,431	-29,7
239,648	-37,89
239,865	46,08
240,083	13,31
240,3	15,36
240,517	84,99
240,735	66,56
240,952	17,41
241,169	52,22
241,386	25,6
241,603	76,8
241,821	15,36
242,038	11,26
242,255	-84,99
242,472	-48,13
242,689	-17,41
242,907	7,17
243,124	9,22
243,341	-19,46
243,558	60,42
243,775	-3,07
243,992	-84,99
244,209	11,26
244,426	-19,46
244,643	-31,74
244,86	41,98
245,078	58,37
245,295	-37,89
245,512	25,6
245,729	9,22
245,946	-31,74
246,163	-9,22
246,38	-7,17
246,597	-27,65
246,814	-76,8
247,031	15,36
247,248	-70,65
247,464	-13,31
247,681	21,5
247,898	-39,94
248,115	29,7
248,332	5,12
248,549	52,22
248,766	17,41
248,983	-29,7
249,2	11,26
249,417	27,65
249,633	-52,22
249,85	15,36
250,067	-89,09
250,284	-27,65
250,501	31,74
250,717	11,26
250,934	13,31
251,151	58,37
251,368	-46,08
251,585	44,03
251,801	25,6
252,018	-60,42
252,235	35,84
252,451	35,84
252,668	-48,13
252,885	-62,46
253,102	56,32
253,318	21,5
253,535	-95,23
253,752	17,41
253,968	13,31
254,185	31,74
254,401	13,31
254,618	-33,79
254,835	-23,55
255,051	-74,75
255,268	21,5
255,484	-15,36
255,701	15,36
255,917	35,84
256,134	-1,02
256,351	44,03
256,567	-33,79
256,784	50,18
257	-37,89
257,217	-9,22
257,433	-72,7
257,65	-3,07
257,866	-29,7
258,082	29,7
258,299	31,74
258,515	27,65
258,732	3,07
258,948	-17,41
259,165	7,17
259,381	-15,36
259,597	1,02
259,814	35,84
260,03	1,02
260,246	-3,07
260,463	-5,12
260,679	-3,07
260,895	-25,6
261,112	17,41
261,328	-7,17
261,544	41,98
261,761	-29,7
261,977	-23,55
262,193	25,6
262,409	25,6
262,626	7,17
262,842	-13,31
263,058	-5,12
263,274	50,18
263,49	-39,94
263,707	21,5
263,923	39,94
264,139	17,41
264,355	17,41
264,571	-9,22
264,787	-74,75
265,004	-1,02
265,22	9,22
265,436	54,27
265,652	-17,41
265,868	50,18
266,084	-64,51
266,3	25,6
266,516	-29,7
266,732	5,12
266,948	17,41
267,164	-23,55
267,38	1,02
267,596	3,07
267,812	-33,79
268,028	-60,42
268,244	37,89
268,46	-25,6
268,676	7,17
268,892	-7,17
269,108	-5,12
269,324	46,08
269,54	-44,03
269,756	-56,32
269,972	37,89
270,188	25,6
270,403	82,94
270,619	29,7
270,835	-70,65
271,051	-1,02
271,267	9,22
271,483	15,36
271,698	48,13
271,914	-29,7
272,13	23,55
272,346	-19,46
272,562	15,36
272,777	17,41
272,993	-72,7
273,209	19,46
273,425	11,26
273,64	-15,36
273,856	-29,7
274,072	1,02
274,287	-17,41
274,503	-37,89
274,719	-1,02
274,934	-33,79
275,15	-39,94
275,366	-13,31
275,581	37,89
275,797	37,89
276,012	27,65
276,228	76,8
276,444	-21,5
276,659	74,75
276,875	31,74
277,09	-17,41
277,306	-23,55
277,521	11,26
277,737	-62,46
277,952	-1,02
278,168	-13,31
278,383	46,08
278,599	-25,6
278,814	33,79
279,03	-25,6
279,245	33,79
279,461	13,31
279,676	-7,17
279,892	-9,22
280,107	25,6
280,322	-3,07
280,538	-9,22
280,753	-1,02
280,969	-60,42
281,184	3,07
281,399	-11,26
281,615	39,94
281,83	-7,17
282,045	-3,07
282,26	-39,94
282,476	103,42
282,691	50,18
282,906	25,6
283,122	25,6
283,337	27,65
283,552	64,51
283,767	99,33
283,983	3,07
284,198	-35,84
284,413	-68,61
284,628	-60,42
284,843	-7,17
285,058	-54,27
285,274	-29,7
285,489	-78,85
285,704	-23,55
285,919	-39,94
286,134	-33,79
286,349	-44,03
286,564	-48,13
286,779	23,55
286,995	-27,65
287,21	-37,89
287,425	-9,22
287,64	-39,94
287,855	15,36
288,07	3,07
288,285	-7,17
288,5	23,55
288,715	11,26
288,93	-29,7
289,145	29,7
289,36	13,31
289,575	52,22
289,79	-9,22
290,004	1,02
290,219	-31,74
290,434	25,6
290,649	-13,31
290,864	13,31
291,079	33,79
291,294	-19,46
291,509	23,55
291,724	-7,17
291,938	66,56
292,153	48,13
292,368	19,46
292,583	11,26
292,798	19,46
293,012	23,55
293,227	1,02
293,442	13,31
293,657	-64,51
293,871	52,22
294,086	89,09
294,301	-15,36
294,516	72,7
294,73	9,22
294,945	-46,08
295,16	27,65
295,374	-23,55
295,589	-3,07
295,804	17,41
296,018	29,7
296,233	11,26
296,447	9,22
296,662	35,84
296,877	31,74
297,091	-1,02
297,306	-58,37
297,52	31,74
297,735	29,7
297,949	9,22
298,164	7,17
298,378	21,5
298,593	15,36
298,807	11,26
299,022	41,98
299,236	-19,46
299,451	11,26
299,665	15,36
299,88	-5,12
300,094	93,18
300,309	-7,17
300,523	-39,94
300,737	-95,23
300,952	-13,31
301,166	-9,22
301,381	15,36
301,595	15,36
301,809	3,07
302,024	-13,31
302,238	23,55
302,452	-29,7
302,667	27,65
302,881	33,79
303,095	52,22
303,309	37,89
303,524	111,61
303,738	-39,94
303,952	7,17
304,166	-23,55
304,381	-17,41
304,595	-74,75
304,809	21,5
305,023	-15,36
305,237	-56,32
305,452	11,26
305,666	-66,56
305,88	46,08
306,094	56,32
306,308	19,46
306,522	-1,02
306,736	13,31
306,95	-21,5
307,164	74,75
307,379	-11,26
307,593	52,22
307,807	-56,32
308,021	1,02
308,235	-7,17
308,449	-5,12
308,663	-64,51
308,877	21,5
309,091	-72,7
309,305	1,02
309,519	7,17
309,733	23,55
309,947	-31,74
310,161	-35,84
310,374	68,61
310,588	52,22
310,802	-9,22
311,016	-25,6
311,23	-7,17
311,444	52,22
311,658	-7,17
311,872	33,79
312,085	-9,22
312,299	-60,42
312,513	-46,08
312,727	11,26
312,941	48,13
313,154	44,03
313,368	35,84
313,582	-62,46
313,796	11,26
314,009	11,26
314,223	70,65
314,437	13,31
314,651	-62,46
314,864	-15,36
315,078	74,75
315,292	-1,02
315,505	-7,17
315,719	-3,07
315,933	37,89
316,146	7,17
316,36	-1,02
316,573	62,46
316,787	-21,5
317,001	-70,65
317,214	15,36
317,428	-39,94
317,641	-7,17
317,855	74,75
318,068	-35,84
318,282	-37,89
318,495	-17,41
318,709	-13,31
318,922	-48,13
319,136	68,61
319,349	72,7
319,563	11,26
319,776	-29,7
319,99	25,6
320,203	-23,55
320,417	-13,31
320,63	39,94
320,843	-62,46
321,057	-15,36
321,27	9,22
321,483	-64,51
321,697	48,13
321,91	39,94
322,124	56,32
322,337	46,08
322,55	60,42
322,763	17,41
322,977	7,17
323,19	5,12
323,403	3,07
323,617	-41,98
323,83	70,65
324,043	5,12
324,256	5,12
324,469	13,31
324,683	82,94
324,896	25,6
325,109	37,89
325,322	46,08
325,535	-46,08
325,748	11,26
325,962	1,02
326,175	-7,17
326,388	35,84
326,601	-27,65
326,814	66,56
327,027	11,26
327,24	-31,74
327,453	-19,46
327,666	33,79
327,879	-15,36
328,092	25,6
328,305	39,94
328,518	76,8
328,731	9,22
328,944	31,74
329,157	-25,6
329,37	-7,17
329,583	-5,12
329,796	-60,42
330,009	31,74
330,222	-33,79
330,435	25,6
330,648	3,07
330,861	-23,55
331,073	-11,26
331,286	52,22
331,499	27,65
331,712	-13,31
331,925	-13,31
332,138	-109,57
332,35	-13,31
332,563	3,07
332,776	25,6
332,989	-1,02
333,202	25,6
333,414	-76,8
333,627	15,36
333,84	-52,22
334,053	37,89
334,265	52,22
334,478	3,07
334,691	-64,51
334,903	5,12
335,116	39,94
335,329	-11,26
335,541	-39,94
335,754	31,74
335,966	41,98
336,179	7,17
336,392	-19,46
336,604	48,13
336,817	5,12
337,029	-54,27
337,242	5,12
337,454	-7,17
337,667	9,22
337,88	62,46
338,092	44,03
338,305	25,6
338,517	-41,98
338,729	-1,02
338,942	72,7
339,154	56,32
339,367	-95,23
339,579	19,46
339,792	1,02
340,004	-13,31
340,217	17,41
340,429	-44,03
340,641	3,07
340,854	-41,98
341,066	-11,26
341,278	25,6
341,491	-19,46
341,703	23,55
341,915	-78,85
342,128	39,94
342,34	-17,41
342,552	-95,23
342,764	31,74
342,977	64,51
343,189	27,65
343,401	19,46
343,613	-29,7
343,826	-87,04
344,038	58,37
344,25	33,79
344,462	19,46
344,674	-13,31
344,886	-58,37
345,099	11,26
345,311	-11,26
345,523	-33,79
345,735	29,7
345,947	37,89
346,159	-82,94
346,371	52,22
346,583	-52,22
346,795	1,02
347,007	15,36
347,219	1,02
347,431	17,41
347,643	-23,55
347,855	21,5
348,067	1,02
348,279	27,65
348,491	54,27
348,703	50,18
348,915	17,41
349,127	31,74
349,339	-27,65
349,551	50,18
349,763	25,6
349,975	3,07
350,187	-23,55
350,399	17,41
350,61	-15,36
350,822	31,74
351,034	11,26
351,246	41,98
351,458	66,56
351,669	15,36
351,881	-5,12
352,093	3,07
352,305	9,22
352,517	84,99
352,728	46,08
352,94	78,85
353,152	-23,55
353,363	37,89
353,575	44,03
353,787	15,36
353,999	-3,07
354,21	99,33
354,422	62,46
354,633	13,31
354,845	-17,41
355,057	52,22
355,268	-17,41
355,48	27,65
355,692	11,26
355,903	52,22
356,115	-60,42
356,326	3,07
356,538	70,65
356,749	-35,84
356,961	5,12
357,172	-13,31
357,384	21,5
357,595	-27,65
357,807	-7,17
358,018	-11,26
358,23	33,79
358,441	25,6
358,653	-15,36
358,864	35,84
359,075	37,89
359,287	31,74
359,498	3,07
359,709	-15,36
359,921	5,12
360,132	21,5
360,344	31,74
360,555	3,07
360,766	-1,02
360,977	-19,46
361,189	62,46
361,4	-15,36
361,611	21,5
361,823	-23,55
362,034	19,46
362,245	74,75
362,456	-3,07
362,667	13,31
362,879	23,55
363,09	44,03
363,301	76,8
363,512	9,22
363,723	76,8
363,935	68,61
364,146	1,02
364,357	58,37
364,568	52,22
364,779	31,74
364,99	105,47
365,201	27,65
365,412	27,65
365,623	72,7
365,834	76,8
366,045	-25,6
366,256	50,18
366,467	1,02
366,678	-11,26
366,889	17,41
367,1	27,65
367,311	97,28
367,522	23,55
367,733	31,74
367,944	41,98
368,155	15,36
368,366	19,46
368,577	101,37
368,788	93,18
368,999	84,99
369,209	107,52
369,42	21,5
369,631	101,37
369,842	99,33
370,053	84,99
370,264	7,17
370,474	31,74
370,685	48,13
370,896	17,41
371,107	74,75
371,317	3,07
371,528	15,36
371,739	29,7
371,95	97,28
372,16	25,6
372,371	117,76
372,582	29,7
372,792	46,08
373,003	97,28
373,214	35,84
373,424	17,41
373,635	87,04
373,846	80,89
374,056	68,61
374,267	74,75
374,477	17,41
374,688	74,75
374,898	39,94
375,109	44,03
375,319	66,56
375,53	37,89
375,74	84,99
375,951	109,57
376,161	160,77
376,372	117,76
376,582	125,95
376,793	107,52
377,003	119,81
377,214	181,25
377,424	168,96
377,635	173,05
377,845	62,46
378,055	175,1
378,266	130,05
378,476	121,85
378,686	140,29
378,897	138,24
379,107	142,33
379,317	109,57
379,528	82,94
379,738	93,18
379,948	115,71
380,158	56,32
380,369	80,89
380,579	60,42
380,789	33,79
380,999	44,03
381,21	76,8
381,42	54,27
381,63	78,85
381,84	31,74
382,05	50,18
382,261	64,51
382,471	99,33
382,681	113,66
382,891	134,14
383,101	109,57
383,311	146,43
383,521	84,99
383,731	152,57
383,941	76,8
384,151	164,86
384,361	91,13
384,571	187,39
384,781	109,57
384,991	107,52
385,201	123,9
385,411	56,32
385,621	203,77
385,831	123,9
386,041	119,81
386,251	150,53
386,461	142,33
386,671	121,85
386,881	148,48
387,091	185,34
387,301	230,4
387,511	209,92
387,72	234,49
387,93	263,16
388,14	285,69
388,35	324,6
388,56	355,32
388,769	357,37
388,979	349,18
389,189	353,27
389,399	394,23
389,609	465,91
389,818	437,24
390,028	369,66
390,238	285,69
390,447	371,71
390,657	281,6
390,867	230,4
391,076	218,11
391,286	144,38
391,496	138,24
391,705	138,24
391,915	136,19
392,125	109,57
392,334	240,64
392,544	222,2
392,753	181,25
392,963	287,74
393,172	306,17
393,382	338,94
393,591	349,18
393,801	357,37
394,01	279,55
394,22	392,19
394,429	369,66
394,639	291,84
394,848	199,68
395,058	275,45
395,267	228,35
395,477	228,35
395,686	332,79
395,895	383,99
396,105	498,68
396,314	543,74
396,524	652,28
396,733	760,82
396,942	879,6
397,152	1149,93
397,361	1068,02
397,57	1305,58
397,78	1098,74
397,989	1489,9
398,198	1565,67
398,407	1625,06
398,617	1596,39
398,826	1903,59
399,035	1655,78
399,244	1709,03
399,453	1821,67
399,663	2008,03
399,872	2120,67
400,081	2120,67
400,29	1926,11
400,499	2290,65
400,708	1897,44
400,917	2259,93
401,127	2083,81
401,336	2237,41
401,545	1991,65
401,754	2300,89
401,963	2235,36
402,172	2356,19
402,381	2026,47
402,59	2534,36
402,799	2218,97
403,008	2225,12
403,217	2104,29
403,426	2464,73
403,635	2075,62
403,844	2331,61
404,053	2329,56
404,262	2350,04
404,471	2141,15
404,68	2360,28
404,888	2128,86
405,097	2311,13
405,306	2368,48
405,515	2567,13
405,724	2364,38
405,933	2761,69
406,142	2292,7
406,35	2499,55
406,559	2866,13
406,768	2911,19
406,977	2577,37
407,185	3007,44
407,394	2780,12
407,603	2941,91
407,812	2827,22
408,02	2819,03
408,229	2710,49
408,438	2970,58
408,646	2837,46
408,855	2909,14
409,064	2761,69
409,272	3083,22
409,481	3353,55
409,69	3468,24
409,898	3193,81
410,107	3492,81
410,315	3251,15
410,524	3705,8
410,733	3501
410,941	3589,07
411,15	3509,19
411,358	3689,42
411,567	3699,66
411,775	3748,81
411,984	3738,57
412,192	3816,39
412,401	3773,38
412,609	3957,7
412,818	3875,78
413,026	3953,6
413,234	3775,43
413,443	3986,37
413,651	3875,78
413,86	3926,98
414,068	3959,75
414,276	4168,64
414,485	3785,67
414,693	3949,51
414,901	4189,12
415,11	4416,44
415,318	3855,3
415,526	4279,23
415,734	3787,72
415,943	4127,68
416,151	3883,97
416,359	4004,8
416,567	3591,11
416,776	4115,39
416,984	3937,22
417,192	4113,35
417,4	3871,68
417,608	3920,84
417,817	3929,03
418,025	3943,36
418,233	4000,71
418,441	4158,4
418,649	4064,19
418,857	4463,55
419,065	4154,3
419,273	4103,11
419,481	4203,46
419,689	4672,44
419,897	4461,5
420,105	4635,58
420,313	4166,59
420,521	4541,37
420,729	3984,32
420,937	4275,13
421,145	4232,13
421,353	4533,18
421,561	4365,25
421,769	4527,03
421,977	4703,16
422,185	4367,29
422,393	4539,32
422,601	4936,63
422,809	4445,12
423,017	4492,22
423,224	4490,17
423,432	4723,64
423,64	4391,87
423,848	4848,57
424,056	4312
424,263	4864,95
424,471	4654,01
424,679	4715,45
424,887	4629,43
425,094	5086,13
425,302	4303,81
425,51	4899,77
425,718	4414,4
425,925	4596,67
426,133	4588,47
426,341	4842,42
426,548	4877,24
426,756	4916,15
426,964	4475,84
427,171	5047,22
427,379	4654,01
427,586	4467,64
427,794	4416,44
428,001	4551,61
428,209	4131,78
428,417	3967,94
428,624	3908,55
428,832	3963,84
429,039	3595,21
429,247	3879,88
429,454	4027,33
429,662	4598,71
429,869	4000,71
430,076	4891,57
430,284	4584,38
430,491	5053,36
430,699	5235,63
430,906	5430,19
431,114	5166
431,321	5639,08
431,528	5571,5
431,736	5956,52
431,943	6151,07
432,15	5792,68
432,358	5768,1
432,565	6183,84
432,772	5833,64
432,979	6325,15
433,187	6306,72
433,394	6640,54
433,601	6708,12
433,808	6921,11
434,016	6339,49
434,223	7101,33
434,43	7273,36
434,637	7265,17
434,844	7564,17
435,052	7928,71
435,259	7359,38
435,466	7326,61
435,673	7271,31
435,88	7695,24
436,087	7789,45
436,294	7883,66
436,501	6853,53
436,708	7252,88
436,915	7138,2
437,122	7265,17
437,329	6912,92
437,537	7318,42
437,743	7197,59
437,95	7220,11
438,157	7502,73
438,364	7803,78
438,571	7646,09
438,778	7447,44
438,985	8016,77
439,192	7969,67
439,399	8260,48
439,606	8018,82
439,813	8489,85
440,02	8934,26
440,227	8706,94
440,433	8377,22
440,64	8653,69
440,847	8979,32
441,054	8655,74
441,261	9067,38
441,467	8680,32
441,674	9055,09
441,881	9007,99
442,088	9249,65
442,294	8829,82
442,501	9372,53
442,708	9145,2
442,914	9616,24
443,121	9403,25
443,328	9339,76
443,534	9702,25
443,741	9257,84
443,948	8711,04
444,154	9497,46
444,361	9089,91
444,568	9300,85
444,774	8747,9
444,981	8975,22
445,187	8866,68
445,394	9640,81
445,6	9223,03
445,807	10320,74
446,013	9466,74
446,22	10046,31
446,426	9814,89
446,633	10240,87
446,839	10109,8
447,046	9982,82
447,252	10025,83
447,459	10355,55
447,665	9798,51
447,871	10515,3
448,078	10591,07
448,284	10093,41
448,491	10423,14
448,697	10875,74
448,903	11103,06
449,11	11121,49
449,316	10797,92
449,522	11156,31
449,728	11176,79
449,935	11379,54
450,141	11002,71
450,347	11361,11
450,553	10933,08
450,76	10961,75
450,966	10900,31
451,172	10836,83
451,378	10810,2
451,584	10971,99
451,791	10789,72
451,997	10982,23
452,203	10832,73
452,409	11238,23
452,615	11359,06
452,821	10865,5
453,027	10607,45
453,233	11344,72
453,44	10935,13
453,646	11174,74
453,852	11113,3
454,058	11518,8
454,264	11258,71
454,47	12122,95
454,676	11862,86
454,882	12579,65
455,088	11408,21
455,294	12200,77
455,5	12231,49
455,705	12458,82
455,911	12374,85
456,117	12329,8
456,323	12172,1
456,529	11862,86
456,735	12385,09
456,941	12112,71
457,147	12540,74
457,352	12282,69
457,558	12065,61
457,764	12550,98
457,97	12518,21
458,176	12829,5
458,381	12921,66
458,587	12567,36
458,793	13009,72
458,999	12469,06
459,204	13679,41
459,41	14269,22
459,616	13220,66
459,821	13822,77
460,027	14365,48
460,233	14467,88
460,438	13892,4
460,644	14330,66
460,85	13923,12
461,055	14312,23
461,261	14510,88
461,466	13986,6
461,672	13763,37
461,878	15016,73
462,083	14252,84
462,289	14328,61
462,494	14252,84
462,7	13591,34
462,905	13417,27
463,111	14414,63
463,316	14658,34
463,522	14674,72
463,727	15035,16
463,932	15252,25
464,138	15581,97
464,343	15641,36
464,549	15416,08
464,754	16315,14
464,959	16046,86
465,165	16452,36
465,37	15897,36
465,575	15717,14
465,781	16179,98
465,986	16976,64
466,191	16354,05
466,397	16460,55
466,602	15772,43
466,807	16878,33
467,012	17044,22
467,218	17251,06
467,423	17425,14
467,628	18291,43
467,833	18754,27
468,038	17984,24
468,244	17720,05
468,449	18772,71
468,654	18154,22
468,859	18303,72
469,064	18191,08
469,269	17941,23
469,474	18541,29
469,679	19116,76
469,885	18733,79
470,09	19632,85
470,295	19880,66
470,5	19747,54
470,705	19931,86
470,91	19827,41
471,115	19940,05
471,32	20847,3
471,525	20585,16
471,73	20792
471,935	21027,52
472,139	20667,08
472,344	21330,62
472,549	21770,93
472,754	21398,2
472,959	21562,04
473,164	21416,63
473,369	21715,64
473,574	22829,73
473,778	22782,63
473,983	22600,36
474,188	23290,52
474,393	22422,19
474,598	22702,76
474,802	22563,5
475,007	23325,34
475,212	23368,35
475,417	22993,57
475,621	23366,3
475,826	24437,39
476,031	24177,3
476,235	24484,49
476,44	24785,54
476,645	25178,75
476,849	25547,39
477,054	26163,82
477,259	25836,15
477,463	26286,7
477,668	26114,67
477,872	27421,28
478,077	26853,99
478,282	26684,01
478,486	27202,14
478,691	27568,73
478,895	27669,08
479,1	27869,78
479,304	27990,61
479,509	27671,13
479,713	28572,24
479,918	28504,65
480,122	28582,48
480,326	29321,79
480,531	29631,04
480,735	29942,33
480,94	29442,62
481,144	30900,78
481,348	29792,83
481,553	30671,4
481,757	30155,32
481,961	30687,79
482,166	30612,01
482,37	31146,53
482,574	30685,74
482,778	31447,58
482,983	31109,67
483,187	30986,79
483,391	31076,9
483,595	31343,14
483,8	30454,32
484,004	30413,36
484,208	30239,28
484,412	29297,22
484,616	28850,76
484,821	29143,62
485,025	28283,47
485,229	28953,16
485,433	28817,99
485,637	29497,92
485,841	29702,71
486,045	29923,9
486,249	30138,93
486,453	30894,63
486,657	30863,91
486,861	31785,5
487,065	31187,49
487,269	31599,13
487,473	31853,08
487,677	32588,3
487,881	32928,27
488,085	33456,64
488,289	33473,03
488,493	34140,66
488,697	34656,75
488,901	34757,1
489,105	34421,23
489,309	35068,39
489,512	34904,56
489,716	34832,88
489,92	34761,2
490,124	34800,11
490,328	34910,7
490,531	34789,87
490,735	34578,93
490,939	34808,3
491,143	35049,96
491,346	34976,23
491,55	35729,89
491,754	35709,41
491,958	35863
492,161	35693,02
492,365	35992,03
492,569	36108,76
492,772	36272,6
492,976	36295,13
493,18	36624,85
493,383	37308,87
493,587	37181,9
493,79	37523,91
493,994	36590,03
494,197	37454,28
494,401	37370,31
494,605	37360,07
494,808	37980,6
495,012	37712,32
495,215	37747,14
495,419	37730,75
495,622	37769,66
495,825	37992,89
496,029	37933,5
496,232	38156,73
496,436	37663,17
496,639	38218,17
496,843	37362,12
497,046	37632,45
497,249	37288,39
497,453	37446,08
497,656	37847,49
497,859	37538,24
498,063	37704,13
498,266	37740,99
498,469	37331,4
498,673	37683,65
498,876	37646,79
499,079	37376,45
499,282	36405,72
499,485	36864,46
499,689	36092,38
499,892	36647,38
500,095	36131,29
500,298	36229,59
500,501	35592,67
500,705	36749,78
500,908	36712,91
501,111	36712,91
501,314	36723,15
501,517	36508,11
501,72	37083,59
501,923	36573,65
502,126	36643,28
502,329	37095,88
502,532	36135,38
502,735	36698,58
502,938	36688,34
503,141	36663,76
503,344	37003,72
503,547	36995,53
503,75	37464,52
503,953	38173,11
504,156	37935,55
504,359	38539,7
504,562	37769,66
504,765	38814,13
504,968	38638
505,17	38922,67
505,373	38173,11
505,576	38580,66
505,779	38564,28
505,982	38930,86
506,185	38619,57
506,387	39043,5
506,59	38334,9
506,793	39182,76
506,996	38224,31
507,198	39264,68
507,401	38668,72
507,604	38625,71
507,807	39174,57
508,009	39256,49
508,212	38859,18
508,415	39762,34
508,617	39199,15
508,82	39379,37
509,022	38980,01
509,225	39756,19
509,428	39547,3
509,63	40579,48
509,833	39717,28
510,035	40522,13
510,238	40135,07
510,44	40493,46
510,643	40515,99
510,845	40477,08
511,048	39668,13
511,25	40278,43
511,453	40210,84
511,655	41030,03
511,858	40079,77
512,06	40042,91
512,262	39797,15
512,465	39793,06
512,667	39637,41
512,87	39915,93
513,072	39500,2
513,274	40118,68
513,477	40307,1
513,679	40458,65
513,881	39817,63
514,084	40475,03
514,286	40466,84
514,488	40161,69
514,69	40769,94
514,893	40083,87
515,095	38732,21
515,297	38416,82
515,499	37296,58
515,701	37446,08
515,904	37435,84
516,106	37460,42
516,308	37575,11
516,51	37462,47
516,712	37554,63
516,914	37597,63
517,116	38052,28
517,318	38312,38
517,52	38044,09
517,722	38357,43
517,925	39729,57
518,127	39412,13
518,329	39584,16
518,531	40161,69
518,733	40352,15
518,935	41320,84
519,136	40692,12
519,338	41677,19
519,54	41494,92
519,742	42115,45
519,944	41400,71
520,146	42645,88
520,348	42236,28
520,55	43170,16
520,752	42750,32
520,954	43630,95
521,155	42099,07
521,357	42869,11
521,559	42584,44
521,761	43274,6
521,963	42768,76
522,164	43114,86
522,366	42899,83
522,568	44067,17
522,77	43420,01
522,971	44487
523,173	44206,43
523,375	44859,73
523,576	44446,04
523,778	44566,87
523,98	44728,66
524,181	44861,78
524,383	44327,26
524,584	44435,8
524,786	44188
524,988	43286,89
525,189	42748,28
525,391	41922,94
525,592	42109,31
525,794	41617,8
525,995	41507,21
526,197	41640,32
526,398	41542,02
526,6	42422,65
526,801	42256,76
527,003	42584,44
527,204	42981,74
527,406	43385,19
527,607	43268,46
527,808	44073,31
528,01	43383,15
528,211	43932
528,412	44263,77
528,614	44179,81
528,815	43641,19
529,016	44595,54
529,218	43688,29
529,419	44454,23
529,62	44030,3
529,822	43975,01
530,023	44134,75
530,224	44779,86
530,425	43995,49
530,626	43192,68
530,828	42740,08
531,029	43645,29
531,23	42449,27
531,431	42168,7
531,632	42283,39
531,833	42326,39
532,035	41863,55
532,236	42441,08
532,437	42111,36
532,638	42074,49
532,839	42322,3
533,04	42236,28
533,241	41494,92
533,442	42967,41
533,643	42254,72
533,844	42656,12
534,045	42856,82
534,246	42873,2
534,447	43313,52
534,648	42961,26
534,849	43428,2
535,05	42967,41
535,251	42553,72
535,451	42039,68
535,652	42369,4
535,853	41779,59
536,054	41226,63
536,255	41986,43
536,456	41374,09
536,657	43112,81
536,857	41630,08
537,058	42090,88
537,259	42332,54
537,46	41501,06
537,66	41458,06
537,861	41820,55
538,062	41197,96
538,263	41634,18
538,463	41021,84
538,664	41249,16
538,865	40438,17
539,065	40710,55
539,266	39913,89
539,466	40475,03
539,667	39477,67
539,868	40049,05
540,068	39692,71
540,269	39631,27
540,469	40303
540,67	39739,81
540,87	40173,98
541,071	40452,5
541,271	39850,4
541,472	40223,13
541,672	39670,18
541,873	40206,75
542,073	39737,76
542,274	40165,79
542,474	39817,63
542,675	39774,63
542,875	40470,93
543,075	40024,48
543,276	39698,85
543,476	40528,28
543,676	40192,41
543,877	40759,7
544,077	39952,8
544,277	40024,48
544,478	39960,99
544,678	40513,94
544,878	39899,55
545,078	40180,12
545,279	39997,85
545,479	39821,73
545,679	40049,05
545,879	40161,69
546,079	40083,87
546,28	39526,82
546,48	39442,85
546,68	39416,23
546,88	39332,26
547,08	39580,07
547,28	39569,83
547,48	39301,54
547,68	40047
547,88	39485,86
548,081	40354,2
548,281	39940,51
548,481	39446,95
548,681	39995,81
548,881	39702,95
549,081	40024,48
549,28	39369,13
549,48	39571,88
549,68	38869,42
549,88	39666,08
550,08	39170,47
550,28	39856,54
550,48	39344,55
550,68	40116,64
550,88	39799,2
551,08	39440,81
551,279	39528,87
551,479	39319,98
551,679	39195,05
551,879	39143,85
552,079	39401,89
552,278	39653,79
552,478	39381,42
552,678	39371,18
552,878	39838,11
553,077	39905,7
553,277	39596,45
553,477	40489,37
553,676	39786,91
553,876	39596,45
554,076	39367,08
554,275	39434,66
554,475	39154,09
554,674	39608,74
554,874	39588,26
555,074	39027,12
555,273	38894
555,473	39012,78
555,672	38310,33
555,872	38592,95
556,071	37827,01
556,271	38351,29
556,47	38093,24
556,67	38083
556,869	38040
557,068	38384,05
557,268	37743,04
557,467	38156,73
557,667	37245,38
557,866	37409,22
558,065	37419,46
558,265	37220,81
558,464	36618,71
558,663	37292,49
558,863	36385,24
559,062	37241,29
559,261	36540,88
559,461	37990,84
559,66	37474,76
559,859	37700,03
560,058	37374,41
560,258	38052,28
560,457	37296,58
560,656	37843,39
560,855	37175,75
561,054	37308,87
561,253	36360,66
561,453	37108,17
561,652	37085,64
561,851	38271,42
562,05	36964,81
562,249	36985,29
562,448	37347,78
562,647	37198,28
562,846	37183,94
563,045	37331,4
563,244	36549,07
563,443	37646,79
563,642	36874,7
563,841	36938,19
564,04	36590,03
564,239	37370,31
564,438	36422,1
564,637	36405,72
564,836	35830,24
565,035	35619,3
565,234	36110,81
565,432	35815,9
565,631	35725,79
565,83	36379,09
566,029	36078,04
566,228	36065,75
566,427	35748,32
566,625	36155,86
566,824	35711,46
567,023	36313,56
567,222	35758,56
567,42	35621,34
567,619	35078,63
567,818	35357,16
568,016	35092,97
568,215	35828,19
568,414	35443,17
568,612	35701,22
568,811	35076,58
569,01	35246,57
569,208	34195,96
569,407	34677,23
569,605	34214,39
569,804	34435,57
570,002	34101,75
570,201	34245,11
570,4	33786,36
570,598	33778,17
570,797	33714,69
570,995	34132,47
571,193	33694,21
571,392	34517,49
571,59	34130,42
571,789	34410,99
571,987	34111,99
572,186	34230,77
572,384	33913,34
572,582	34169,33
572,781	34310,64
572,979	33939,96
573,177	34052,6
573,376	34296,31
573,574	33761,79
573,772	34091,51
573,971	33110,53
574,169	33229,32
574,367	33133,06
574,565	33534,46
574,763	33262,08
574,962	33161,73
575,16	32313,87
575,358	33550,85
575,556	32766,48
575,754	33296,9
575,952	32449,04
576,151	33397,25
576,349	32383,51
576,547	33143,3
576,745	32840,2
576,943	33157,64
577,141	32965,13
577,339	32633,36
577,537	32270,87
577,735	32371,22
577,933	32475,66
578,131	32948,75
578,329	33057,29
578,527	33186,31
578,725	33145,35
578,923	33530,37
579,121	33333,76
579,319	33354,24
579,516	33669,63
579,714	33829,37
579,912	33864,19
580,11	34558,45
580,308	34460,15
580,506	34820,59
580,704	34497,01
580,901	34912,75
581,099	35166,7
581,297	34988,52
581,495	34951,66
581,692	35598,82
581,89	34730,48
582,088	35817,95
582,285	35369,44
582,483	36235,74
582,681	36579,79
582,878	35781,09
583,076	36135,38
583,274	36065,75
583,471	35312,1
583,669	35807,71
583,866	36045,27
584,064	35844,57
584,262	35695,07
584,459	35994,07
584,657	34888,17
584,854	35748,32
585,052	34806,25
585,249	35766,75
585,447	36116,95
585,644	35924,44
585,841	35789,28
586,039	35682,78
586,236	35770,85
586,434	35748,32
586,631	35467,75
586,828	35041,77
587,026	35518,95
587,223	35260,9
587,42	34808,3
587,618	34640,37
587,815	33686,01
588,012	32991,75
588,21	32281,11
588,407	31883,8
588,604	31564,32
588,801	31668,76
588,999	31566,37
589,196	31932,95
589,393	32719,37
589,59	32805,39
589,787	32553,49
589,984	32881,16
590,182	32588,3
590,379	32596,49
590,576	32508,43
590,773	32813,58
590,97	32518,67
591,167	33040,9
591,364	32418,32
591,561	32997,9
591,758	32727,56
591,955	33180,17
592,152	33812,99
592,349	33243,65
592,546	33204,74
592,743	33696,25
592,94	33120,77
593,137	33430,02
593,334	33239,56
593,531	32633,36
593,727	32547,34
593,924	33096,2
594,121	32037,4
594,318	32487,95
594,515	32076,31
594,712	32737,8
594,908	32840,2
595,105	33454,59
595,302	32694,8
595,499	33196,55
595,696	32752,14
595,892	33067,53
596,089	33028,62
596,286	32938,51
596,482	32752,14
596,679	32891,4
596,876	33169,93
597,072	32938,51
597,269	32651,79
597,466	32481,81
597,662	32313,87
597,859	32649,74
598,055	32479,76
598,252	32418,32
598,448	32416,27
598,645	32608,78
598,841	32418,32
599,038	32434,71
599,234	32504,34
599,431	32252,44
599,627	32537,1
599,824	32385,55
600,02	32184,85
600,217	32051,73
600,413	31867,42
600,609	32068,12
600,806	31724,06
601,002	31818,27
601,198	31277,6
601,395	31898,14
601,591	31453,73
601,787	31984,15
601,984	31666,72
602,18	32285,2
602,376	32010,78
602,572	32068,12
602,769	32082,45
602,965	32338,45
603,161	32449,04
603,357	32279,06
603,553	32696,85
603,75	32864,78
603,946	32381,46
604,142	32506,38
604,338	31660,57
604,534	31779,36
604,73	31685,15
604,926	32145,94
605,122	32289,3
605,318	32201,24
605,514	31728,16
605,71	32596,49
605,906	32016,92
606,102	32586,25
606,298	32530,96
606,494	32508,43
606,69	32512,53
606,886	32770,57
607,082	32668,17
607,278	32938,51
607,474	32485,9
607,67	33114,63
607,866	32639,5
608,062	33131,01
608,257	32582,16
608,453	33214,98
608,649	33272,32
608,845	32522,77
609,041	32535,06
609,236	32600,59
609,432	32449,04
609,628	32934,41
609,824	32629,26
610,019	32762,38
610,215	32944,65
610,411	33235,46
610,606	32809,48
610,802	33165,83
610,998	33141,25
611,193	33546,75
611,389	33016,33
611,584	32748,04
611,78	33135,11
611,976	33710,59
612,171	33591,81
612,367	33305,09
612,562	33509,89
612,758	32911,88
612,953	32801,29
613,149	33518,08
613,344	33358,34
613,539	33964,54
613,735	33516,03
613,93	34370,04
614,126	33845,76
614,321	34605,55
614,517	34580,98
614,712	34054,65
614,907	34017,78
615,103	34091,51
615,298	33954,3
615,493	34300,4
615,688	33550,85
615,884	34335,22
616,079	33532,42
616,274	34423,28
616,47	34105,85
616,665	34507,25
616,86	34087,42
617,055	34296,31
617,25	35158,5
617,445	35207,65
617,641	34765,29
617,836	35400,16
618,031	35113,45
618,226	35181,03
618,421	34716,14
618,616	35195,37
618,811	34890,22
619,006	36370,9
619,201	35156,46
619,396	36301,27
619,591	35946,97
619,786	36092,38
619,981	35465,7
620,176	35930,59
620,371	34982,38
620,566	35611,1
620,761	34963,95
620,956	35170,79
621,151	34669,04
621,346	34494,96
621,541	34568,69
621,735	34918,89
621,93	34583,02
622,125	34972,14
622,32	34150,9
622,515	34595,31
622,709	33821,18
622,904	33909,24
623,099	33329,67
623,294	33880,57
623,488	33135,11
623,683	33688,06
623,878	33157,64
624,072	32997,9
624,267	33100,29
624,462	33131,01
624,656	32397,84
624,851	32467,47
625,046	32240,15
625,24	32866,83
625,435	32315,92
625,629	32528,91
625,824	32078,36
626,018	32266,77
626,213	31713,82
626,407	31986,2
626,602	31222,31
626,796	30935,59
626,991	30706,22
627,185	29989,43
627,38	29086,28
627,574	29282,88
627,768	29082,18
627,963	29698,62
628,157	29252,16
628,352	29411,9
628,546	28463,69
628,74	29215,3
628,935	29121,09
629,129	29583,93
629,323	29442,62
629,517	29219,39
629,712	28916,29
629,906	28981,83
630,1	28641,87
630,294	29555,26
630,489	28920,39
630,683	29739,58
630,877	29411,9
631,071	29495,87
631,265	29397,57
631,459	29483,58
631,653	29045,32
631,848	29491,77
632,042	29770,3
632,236	30089,78
632,43	29567,55
632,624	30005,81
632,818	29596,22
633,012	29778,49
633,206	29424,19
633,4	30396,98
633,594	29919,8
633,788	30126,64
633,982	30579,25
634,176	30804,52
634,369	30726,7
634,563	31021,61
634,757	30370,35
634,951	30607,92
635,145	30829,1
635,339	31025,7
635,533	30519,85
635,726	30892,58
635,92	30523,95
636,114	31361,57
636,308	30771,75
636,501	30933,54
636,695	31255,08
636,889	30857,77
637,083	30974,5
637,276	31504,93
637,47	31021,61
637,664	31427,1
637,857	31672,86
638,051	31951,38
638,244	31535,65
638,438	31719,96
638,632	31248,93
638,825	31103,53
639,019	30845,48
639,212	31490,59
639,406	30868,01
639,599	30827,05
639,793	31216,16
639,986	30417,46
640,18	30259,76
640,373	30376,5
640,567	30505,52
640,76	30702,12
640,954	30192,18
641,147	30689,84
641,34	30714,41
641,534	30947,88
641,727	30569,01
641,92	30669,36
642,114	30833,19
642,307	31042,09
642,5	30802,47
642,694	30487,09
642,887	30102,07
643,08	30278,19
643,273	30290,48
643,467	30714,41
643,66	30624,3
643,853	30792,23
644,046	30372,4
644,239	31031,85
644,432	30468,66
644,626	30360,11
644,819	30280,24
645,012	30450,22
645,205	30315,06
645,398	29674,04
645,591	29893,18
645,784	30188,08
645,977	30075,45
646,17	30390,83
646,363	29598,27
646,556	29741,63
646,749	29983,29
646,942	29835,83
647,135	29166,15
647,328	29348,42
647,521	29219,39
647,714	29383,23
647,907	29342,27
648,099	28990,02
648,292	29162,05
648,485	29016,65
648,678	28248,66
648,871	28283,47
649,064	28439,12
649,256	28764,75
649,449	28265,04
649,642	29186,63
649,835	28662,35
650,027	29198,91
650,22	28873,29
650,413	29108,8
650,605	28658,25
650,798	28985,93
650,991	28721,74
651,183	29008,45
651,376	28179,03
651,568	28916,29
651,761	28613,2
651,954	28801,61
652,146	29215,3
652,339	29639,23
652,531	28867,14
652,724	29538,88
652,916	28854,86
653,109	29131,33
653,301	28611,15
653,494	28793,42
653,686	28660,3
653,879	29063,75
654,071	28715,59
654,263	28789,32
654,456	28922,44
654,648	28578,38
654,84	27972,18
655,033	27495
655,225	25967,22
655,417	25606,78
655,61	24726,15
655,802	25457,28
655,994	23982,74
656,186	25201,28
656,379	25004,67
656,571	25823,86
656,763	25827,96
656,955	26243,7
657,148	26577,51
657,34	26669,67
657,532	26735,21
657,724	27075,17
657,916	27202,14
658,108	27585,12
658,3	26980,96
658,492	27900,5
658,684	27730,52
658,876	28090,96
659,068	27621,98
659,26	28394,06
659,452	28119,63
659,644	28811,85
659,836	27925,08
660,028	28914,25
660,22	27699,8
660,412	28076,63
660,604	27994,71
660,796	28576,33
660,988	28381,77
661,18	28496,46
661,372	28318,29
661,563	28973,64
661,755	28158,55
661,947	28562
662,139	28729,93
662,331	29092,42
662,522	28211,79
662,714	28328,53
662,906	27681,37
663,097	27963,99
663,289	27783,77
663,481	28551,76
663,673	28219,99
663,864	28267,09
664,056	27984,47
664,247	28635,72
664,439	27820,63
664,631	28518,99
664,822	28568,14
665,014	28381,77
665,205	28349,01
665,397	28473,93
665,588	27863,64
665,78	27423,33
665,971	27347,55
666,163	28158,55
666,354	27535,96
666,546	28201,55
666,737	27638,36
666,929	27814,49
667,12	28047,96
667,311	28140,11
667,503	27349,6
667,694	28041,81
667,885	27439,71
668,077	27452
668,268	27419,23
668,459	27978,33
668,651	27624,03
668,842	28115,54
669,033	27435,61
669,224	27660,89
669,416	27185,76
669,607	27310,69
669,798	26790,5
669,989	27601,5
670,18	27273,82
670,371	27368,03
670,563	26804,84
670,754	26727,02
670,945	26397,29
671,136	27130,47
671,327	26851,94
671,518	26794,6
671,709	27206,24
671,9	27183,71
672,091	26796,65
672,282	27093,6
672,473	27245,15
672,664	27859,54
672,855	26774,12
673,046	27138,66
673,237	26868,33
673,428	27046,5
673,619	26833,51
673,809	26511,98
674	26462,83
674,191	27046,5
674,382	26647,15
674,573	26960,48
674,764	26698,34
674,954	26686,06
675,145	26133,11
675,336	26622,57
675,527	26888,81
675,717	26968,68
675,908	26475,12
676,099	26987,11
676,289	26524,27
676,48	26280,56
676,671	25776,76
676,861	26186,35
677,052	26159,73
677,243	26817,13
677,433	26174,06
677,624	26356,33
677,814	26157,68
678,005	26595,95
678,195	25893,49
678,386	26618,47
678,576	25531
678,767	26292,85
678,957	25705,08
679,148	26419,82
679,338	26202,74
679,529	26348,14
679,719	25877,11
679,909	26389,1
680,1	25565,82
680,29	26303,09
680,481	26251,89
680,671	26301,04
680,861	25748,09
681,052	26462,83
681,242	26212,98
681,432	26538,6
681,622	25690,74
681,813	25774,71
682,003	25764,47
682,193	25827,96
682,383	25457,28
682,573	25725,56
682,764	25625,21
682,954	25999,99
683,144	25408,12
683,334	25377,4
683,524	25275,01
683,714	25350,78
683,904	25293,44
684,094	25422,46
684,284	25145,98
684,474	25064,07
684,664	25133,7
684,854	25078,4
685,044	25086,59
685,234	24943,24
685,424	25100,93
685,614	25113,22
685,804	24904,32
685,994	24119,95
686,184	22606,5
686,374	20974,27
686,564	18563,81
686,753	17629,94
686,943	15174,42
687,133	14844,7
687,323	14693,15
687,513	15168,28
687,702	15434,52
687,892	15930,12
688,082	16010
688,272	16274,18
688,461	16188,17
688,651	15958,8
688,841	15182,62
689,03	15596,31
689,22	15502,1
689,41	16151,31
689,599	15915,79
689,789	16288,52
689,979	16333,57
690,168	17343,22
690,358	17212,15
690,547	17371,89
690,737	17840,88
690,926	18186,99
691,116	18094,83
691,305	19190,49
691,495	18854,62
691,684	19477,21
691,874	19944,14
692,063	20329,16
692,252	19944,14
692,442	20900,55
692,631	20329,16
692,82	20728,52
693,01	20576,97
693,199	21148,35
693,388	20556,49
693,578	20855,49
693,767	20736,71
693,956	20787,91
694,146	20558,53
694,335	20495,05
694,524	20906,69
694,713	21361,34
694,902	21258,94
695,092	21727,92
695,281	21183,16
695,47	21455,54
695,659	21058,24
695,848	21355,19
696,037	21871,28
696,226	22205,1
696,415	21932,72
696,604	22426,28
696,793	22411,95
696,982	22778,53
697,171	22657,7
697,36	22569,64
697,549	21920,43
697,738	22309,55
697,927	21811,89
698,116	22149,81
698,305	21824,18
698,494	22084,27
698,683	22129,33
698,872	22114,99
699,061	21758,64
699,25	21811,89
699,438	22071,98
699,627	22020,78
699,816	21504,7
700,005	21390,01
700,193	21226,17
700,382	21488,31
700,571	21084,86
700,76	21160,64
700,948	21127,87
701,137	20939,46
701,326	20925,12
701,514	21187,26
701,703	21140,16
701,892	21162,69
702,08	20746,95
702,269	21045,95
702,457	20736,71
702,646	21150,4
702,834	20998,85
703,023	21070,53
703,212	20796,1
703,4	21197,5
703,589	20906,69
703,777	21611,19
703,965	21207,74
704,154	21740,21
704,342	21287,61
704,531	21801,65
704,719	21363,39
704,907	22231,72
705,096	21277,37
705,284	21461,69
705,472	21541,56
705,661	21402,3
705,849	21306,04
706,037	21398,2
706,226	21566,13
706,414	21404,35
706,602	21281,47
706,79	21347
706,979	21713,59
707,167	21629,62
707,355	21236,41
707,543	21660,34
707,731	21840,56
707,919	21338,81
708,107	21203,64
708,296	21428,92
708,484	20982,46
708,672	21371,58
708,86	20867,78
709,048	21316,28
709,236	21643,96
709,424	21410,49
709,612	21066,43
709,8	21553,85
709,988	20869,83
710,176	20939,46
710,364	21121,73
710,551	21285,56
710,739	21179,07
710,927	21592,76
711,115	21236,41
711,303	21684,92
711,491	20912,83
711,679	20908,74
711,866	20622,02
712,054	21273,28
712,242	20988,61
712,43	21070,53
712,617	20513,48
712,805	20802,24
712,993	20900,55
713,181	21238,46
713,368	20507,34
713,556	21064,38
713,744	20064,97
713,931	20763,33
714,119	20191,95
714,306	20437,7
714,494	20138,7
714,682	20153,04
714,869	19759,83
715,057	20394,7
715,244	19938
715,432	20290,25
715,619	20009,68
715,807	19954,38
715,994	19440,34
716,182	19057,37
716,369	18508,52
716,556	18342,63
716,744	17498,87
716,931	17273,59
717,119	16392,97
717,306	16110,35
717,493	15579,92
717,681	15504,15
717,868	15045,4
718,055	14949,15
718,242	14629,66
718,43	14443,3
718,617	14068,52
718,804	13896,49
718,991	13228,85
719,179	13556,53
719,366	13019,96
719,553	12909,37
719,74	12811,07
719,927	13085,5
720,114	13148,98
720,301	13327,16
720,488	13247,29
720,676	13722,41
720,863	13996,84
721,05	14697,25
721,237	14881,56
721,424	15407,89
721,611	15797,01
721,798	15928,08
721,985	16026,38
722,172	15805,2
722,358	16116,49
722,545	16374,53
722,732	15774,48
722,919	15641,36
723,106	14986,01
723,293	15581,97
723,48	14875,42
723,667	14678,82
723,853	14377,76
724,04	14738,21
724,227	14248,74
724,414	14557,99
724,6	14252,84
724,787	14261,03
724,974	14228,26
725,161	14197,54
725,347	14177,06
725,534	14588,71
725,72	14187,3
725,907	14084,91
726,094	13792,05
726,28	14301,99
726,467	14172,97
726,653	14603,04
726,84	14234,41
727,027	14631,71
727,213	13900,59
727,4	14033,71
727,586	13861,68
727,773	13929,26
727,959	13691,7
728,145	13986,6
728,332	13781,81
728,518	14287,65
728,705	13908,78
728,891	13914,92
729,077	13806,38
729,264	13808,43
729,45	13714,22
729,636	13736,75
729,823	13570,86
730,009	14043,95
730,195	13921,07
730,382	14383,91
730,568	14191,4
730,754	14031,66
730,94	14060,33
731,126	14234,41
731,313	14097,19
731,499	14220,07
731,685	13830,96
731,871	14062,38
732,057	14463,78
732,243	14541,6
732,429	14666,53
732,615	14965,53
732,801	14914,33
732,987	15278,87
733,173	15141,66
733,359	15174,42
733,545	14973,72
733,731	15252,25
733,917	15577,87
734,103	15805,2
734,289	15790,86
734,475	15942,41
734,661	15868,69
734,847	15780,62
735,033	16130,83
735,219	15762,19
735,404	15811,34
735,59	15954,7
735,776	15713,04
735,962	15784,72
736,148	15506,2
736,333	15622,93
736,519	15139,61
736,705	15725,33
736,89	15723,28
737,076	16280,33
737,262	15801,1
737,447	15788,82
737,633	15534,87
737,819	15606,55
738,004	15473,43
738,19	15639,31
738,375	14897,95
738,561	15821,58
738,747	15147,8
738,932	15430,42
739,118	14986,01
739,303	14938,91
739,489	15115,03
739,674	15473,43
739,859	15418,13
740,045	15579,92
740,23	15581,97
740,416	15756,05
740,601	15448,85
740,786	15672,08
740,972	15252,25
741,157	15737,62
741,342	15037,21
741,528	15500,05
741,713	15061,79
741,898	15069,98
742,084	14945,05
742,269	15280,92
742,454	15008,54
742,639	15248,15
742,824	14838,56
743,01	15225,62
743,195	14943
743,38	14926,62
743,565	15096,6
743,75	15364,89
743,935	14916,38
744,12	15455
744,305	14836,51
744,49	15123,23
744,675	14517,03
744,86	14883,61
745,045	14693,15
745,23	14844,7
745,415	14682,91
745,6	15266,58
745,785	15160,09
745,97	15303,45
746,155	15039,26
746,34	15342,36
746,525	14639,9
746,71	15061,79
746,895	14674,72
747,079	14920,48
747,264	14297,89
747,449	14748,45
747,634	14213,93
747,819	14877,47
748,003	14121,77
748,188	14447,4
748,373	14301,99
748,557	14467,88
748,742	14627,62
748,927	14590,75
749,111	14326,57
749,296	14451,49
749,481	14289,7
749,665	14314,28
749,85	14002,99
750,034	14207,78
750,219	13820,72
750,404	13982,51
750,588	13904,68
750,773	14431,01
750,957	14293,8
751,141	14250,79
751,326	13679,41
751,51	14009,13
751,695	13476,66
751,879	13687,6
752,064	13810,48
752,248	13941,55
752,432	13904,68
752,617	13781,81
752,801	13366,07
752,985	13671,22
753,17	13292,34
753,354	13437,75
753,538	13337,4
753,722	13370,16
753,907	13151,03
754,091	13265,72
754,275	13011,77
754,459	13531,95
754,643	13435,7
754,828	13759,28
755,012	13005,63
755,196	13439,79
755,38	12995,39
755,564	13355,83
755,748	12815,16
755,932	13267,77
756,116	12772,16
756,3	13159,22
756,484	12684,09
756,668	13007,67
756,852	12798,78
757,036	13157,18
757,22	12626,75
757,404	12985,15
757,588	11950,92
757,772	12763,97
757,956	12381
758,14	12524,35
758,323	12460,87
758,507	12962,62
758,691	12356,42
758,875	12237,64
759,059	11518,8
759,242	10910,55
759,426	9397,1
759,61	8336,26
759,794	6552,48
759,977	5000,12
760,161	3302,35
760,345	2395,1
760,528	1721,32
760,712	1182,7
760,895	705,53
761,079	496,63
761,263	322,56
761,446	480,25
761,63	463,86
761,813	656,37
761,997	635,89
762,18	846,84
762,364	642,04
762,547	713,72
762,731	312,32
762,914	308,22
763,098	183,29
763,281	207,87
763,464	33,79
763,648	134,14
763,831	99,33
764,015	107,52
764,198	277,5
764,381	302,08
764,564	465,91
764,748	728,05
764,931	863,22
765,114	1194,99
765,297	1348,59
765,481	2128,86
765,664	2212,83
765,847	2790,36
766,03	3277,77
766,213	3906,5
766,397	4346,81
766,58	5241,78
766,763	5548,97
766,946	6146,98
767,129	6542,24
767,312	7447,44
767,495	7820,17
767,678	8649,6
767,861	8897,4
768,044	9585,52
768,227	9651,05
768,41	10027,88
768,593	10267,49
768,776	10416,99
768,959	10857,31
769,142	11500,37
769,324	11289,43
769,507	11764,56
769,69	11486,03
769,873	11967,31
770,056	12387,14
770,239	12798,78
770,421	12700,48
770,604	12895,04
770,787	12684,09
770,97	13075,26
771,152	12888,89
771,335	13179,7
771,518	13042,49
771,7	13433,65
771,883	13443,89
772,066	13632,3
772,248	13499,19
772,431	13794,09
772,613	13308,72
772,796	13632,3
772,978	13390,64
773,161	13802,29
773,343	13622,06
773,526	13736,75
773,708	13914,92
773,891	14322,47
774,073	14066,47
774,256	14322,47
774,438	14478,12
774,621	14422,82
774,803	14000,94
774,985	13955,88
775,168	13988,65
775,35	14097,19
775,532	13654,83
775,715	13896,49
775,897	13454,13
776,079	14089
776,261	14052,14
776,444	14054,19
776,626	14084,91
776,808	14267,17
776,99	14013,23
777,173	14035,75
777,355	14011,18
777,537	14201,64
777,719	14023,47
777,901	14338,85
778,083	13826,86
778,265	14091,05
778,447	13734,7
778,629	14254,89
778,811	14023,47
778,993	14166,82
779,175	14027,56
779,357	14267,17
779,539	13990,7
779,721	14074,67
779,903	13728,56
780,085	13976,36
780,267	13484,85
780,449	13417,27
780,631	13384,5
780,812	13626,16
780,994	13523,76
781,176	13853,48
781,358	13271,86
781,54	13159,22
781,721	12972,86
781,903	13120,31
782,085	12731,2
782,267	13142,84
782,448	12790,59
782,63	12948,28
782,812	12356,42
782,993	12831,55
783,175	12651,33
783,357	12786,49
783,538	12405,57
783,72	12735,29
783,901	12426,05
784,083	12610,37
784,264	12249,93
784,446	12424
784,627	11916,11
784,809	12036,94
784,99	12282,69
785,172	12544,83
785,353	12174,15
785,535	11936,59
785,716	11742,03
785,897	12022,6
786,079	11535,18
786,26	12100,42
786,441	11799,37
786,623	11869
786,804	11510,61
786,985	11670,35
787,167	11615,05
787,348	11826
787,529	11348,82
787,71	11647,82
787,891	10867,55
788,073	11297,62
788,254	11096,92
788,435	10883,93
788,616	10912,6
788,797	11205,46
788,978	10562,4
789,159	10730,33
789,34	10318,69
789,522	10711,9
789,703	10433,38
789,884	10849,11
790,065	10105,7
790,246	10435,42
790,427	9929,58
790,607	10398,56
790,788	9808,75
790,969	10130,28
791,15	9833,32
791,331	9821,03
791,512	9722,73
791,693	9802,6
791,874	9628,53
792,054	9732,97
792,235	9622,38
792,416	9923,43
792,597	9423,73
792,778	9407,34
792,958	9257,84
793,139	9560,94
793,32	9466,74
793,5	9882,47
793,681	9358,19
793,862	9685,87
794,042	9376,62
794,223	9483,12
794,404	9175,92
794,584	9249,65
794,765	8692,6
794,945	9284,47
795,126	9300,85
795,306	9546,61
795,487	9143,16
795,667	9327,47
795,848	9194,36
796,028	9108,34
796,209	9038,71
796,389	9038,71
796,57	8629,12
796,75	9116,53
796,93	8569,73
797,111	8973,18
797,291	8670,08
797,471	8942,46
797,652	8637,31
797,832	9192,31
798,012	8698,75
798,192	8844,15
798,373	8903,54
798,553	8749,95
798,733	8586,11
798,913	8792,95
799,093	8426,37
799,274	8571,77
799,454	8405,89
799,634	8733,56
799,814	8375,17
799,994	8573,82
800,174	8446,85
800,354	8553,34
800,534	8143,75
800,714	8162,18
800,894	7822,22
801,074	8221,57
801,254	7996,29
801,434	8106,88
801,614	7951,24
801,794	8301,44
801,974	7709,58
802,154	8096,64
802,334	7670,67
802,514	7863,18
802,693	7658,38
802,873	7820,17
803,053	7535,5
803,233	7533,45
803,413	7486,35
803,592	7410,57
803,772	7580,56
803,952	7476,11
804,131	7228,31
804,311	7220,11
804,491	7138,2
804,67	7058,32
804,85	7173,01
805,03	7304,08
805,209	7111,57
805,389	7463,82
805,568	7283,6
805,748	7558,03
805,928	7238,55
806,107	7433,1
806,287	7109,52
806,466	7228,31
806,646	7203,73
806,825	7173,01
807,004	7013,27
807,184	7138,2
807,363	6960,02
807,543	6955,93
807,722	6790,04
807,901	6718,36
808,081	6558,62
808,26	6953,88
808,439	6814,62
808,619	7138,2
808,798	6781,85
808,977	6730,65
809,156	6724,51
809,336	6939,54
809,515	6701,98
809,694	6863,77
809,873	6407,07
810,052	6433,69
810,231	6304,67
810,411	6566,81
810,59	6132,64
810,769	6599,58
810,948	6491,04
811,127	6763,42
811,306	6507,42
811,485	6529,95
811,664	6413,21
811,843	6474,65
812,022	6167,46
812,201	6112,16
812,38	5899,17
812,559	6177,7
812,737	5897,13
812,916	6007,72
813,095	5483,44
813,274	5665,71
813,453	5137,33
813,632	5344,17
813,811	5100,47
813,989	5067,7
814,168	4953,01
814,347	5174,19
814,526	4729,78
814,704	4795,32
814,883	4518,84
815,062	4434,88
815,24	4256,7
815,419	4228,03
815,598	3808,2
815,776	4031,43
815,955	3840,97
816,133	3980,23
816,312	3677,13
816,49	3820,49
816,669	3582,92
816,847	3720,14
817,026	3306,45
817,204	3371,98
817,383	3185,62
817,561	3531,72
817,74	3300,3
817,918	3634,12
818,097	3177,42
818,275	3378,12
818,453	3210,19
818,632	3273,68
818,81	3212,24
818,988	3351,5
819,167	3333,07
819,345	3711,94
819,523	3247,05
819,701	3425,23
819,879	3177,42
820,058	3361,74
820,236	3351,5
820,414	3627,98
820,592	3603,4
820,77	3933,12
820,948	3816,39
821,127	4125,63
821,305	4068,29
821,483	4422,59
821,661	4096,96
821,839	4305,85
822,017	4031,43
822,195	4424,64
822,373	3918,79
822,551	4049,86
822,729	3556,3
822,907	3384,27
823,085	2851,8
823,262	2687,96
823,44	2284,51
823,618	2407,39
823,796	2163,68
823,974	2360,28
824,152	2413,53
824,329	2878,42
824,507	2892,76
824,685	3148,75
824,863	3150,8
825,04	3683,27
825,218	3619,78
825,396	3851,21
825,574	3738,57
825,751	3957,7
825,929	3713,99
826,107	3789,77
826,284	3711,94
826,462	3707,85
826,639	3468,24
826,817	3580,87
826,994	3513,29
827,172	3773,38
827,349	3732,42
827,527	3810,25
827,704	3365,84
827,882	3572,68
828,059	3089,36
828,237	3095,5
828,414	2950,1
828,591	3021,78
828,769	2819,03
828,946	2980,82
829,124	2657,24
829,301	3165,14
829,478	2857,94
829,655	2950,1
829,833	2718,68
830,01	2972,63
830,187	2771,93
830,364	3212,24
830,542	3079,12
830,719	3331,02
830,896	3101,65
831,073	3349,45
831,25	2937,81
831,427	3077,07
831,604	2915,28
831,782	3222,48
831,959	2919,38
832,136	3185,62
832,313	2864,08
832,49	2845,65
832,667	2882,52
832,844	2954,19
833,021	2710,49
833,198	2778,07
833,374	2876,37
833,551	3120,08
833,728	2786,26
833,905	3038,16
834,082	2599,9
834,259	2630,62
834,436	2690,01
834,612	2999,25
834,789	2636,76
834,966	2890,71
835,143	2812,89
835,319	3001,3
835,496	2913,24
835,673	3255,25
835,85	2941,91
836,026	3060,69
836,203	2892,76
836,38	2823,12
836,556	2655,19
836,733	2954,19
836,909	3034,07
837,086	3013,59
837,262	2919,38
837,439	3054,55
837,616	2864,08
837,792	3003,35
837,968	2642,9
838,145	2919,38
838,321	2538,46
838,498	2864,08
838,674	2778,07
838,851	2892,76
839,027	2677,72
839,203	3009,49
839,38	2638,81
839,556	2829,27
839,732	2683,86
839,909	3019,73
840,085	2571,22
840,261	2933,72
840,437	2769,88
840,614	2933,72
840,79	2659,29
840,966	2929,62
841,142	2782,17
841,318	3048,4
841,494	2690,01
841,671	2991,06
841,847	2698,2
842,023	2722,77
842,199	2503,64
842,375	2718,68
842,551	2452,44
842,727	2726,87
842,903	2470,87
843,079	2694,1
843,255	2526,17
843,431	2792,41
843,607	2606,04
843,783	2579,42
843,959	2458,59
844,134	2673,62
844,31	2223,07
844,486	2259,93
844,662	2227,17
844,838	2515,93
845,013	2356,19
845,189	2411,48
845,365	2335,71
845,541	2444,25
845,716	2337,76
845,892	2409,44
846,068	2169,82
846,244	2261,98
846,419	2388,96
846,595	2380,76
846,77	2335,71
846,946	2360,28
847,122	2280,41
847,297	2339,8
847,473	2030,56
847,648	2255,84
847,824	2188,25
847,999	2434,01
848,175	2255,84
848,35	2339,8
848,526	2274,27
848,701	2356,19
848,876	2182,11
849,052	2206,69
849,227	2085,86
849,403	2282,46
849,578	1989,6
849,753	2137,06
849,929	1901,54
850,104	1870,82
850,279	1541,1
850,454	1631,21
850,63	1524,71
850,805	1504,23
850,98	1453,03
851,155	1541,1
851,33	1496,04
851,505	1510,38
851,681	1508,33
851,856	1768,42
852,031	1604,58
852,206	1719,27
852,381	1686,5
852,556	1772,52
852,731	1625,06
852,906	1758,18
853,081	1569,77
853,256	1637,35
853,431	1627,11
853,606	1606,63
853,781	1444,84
853,956	1688,55
854,131	1381,35
854,305	1360,88
854,48	1135,6
854,655	1022,96
854,83	865,27
855,005	955,38
855,18	844,79
855,354	904,18
855,529	736,24
855,704	1000,43
855,879	938,99
856,053	1213,42
856,228	1238
856,403	1229,81
856,577	1164,27
856,752	1469,42
856,926	1281
857,101	1340,4
857,276	1205,23
857,45	1342,44
857,625	1426,41
857,799	1264,62
857,974	1307,63
858,148	1352,68
858,323	1043,44
858,497	1342,44
858,672	1180,65
858,846	1418,22
859,02	1260,52
859,195	1158,13
859,369	1209,33
859,543	1295,34
859,718	1076,21
859,892	1278,96
860,066	1156,08
860,241	1168,37
860,415	941,04
860,589	1164,27
860,763	1049,58
860,938	1104,88
861,112	1057,78
861,286	990,19
861,46	1033,2
861,634	1272,81
861,808	891,89
861,982	1059,82
862,157	1018,86
862,331	1121,26
862,505	914,42
862,679	1000,43
862,853	889,84
863,027	994,29
863,201	902,13
863,375	863,22
863,549	738,29
863,722	830,45
863,896	895,99
864,07	990,19
864,244	828,4
864,418	920,56
864,592	977,91
864,766	812,02
864,939	766,96
865,113	859,12
865,287	793,59
865,461	930,8
865,634	672,76
865,808	793,59
865,982	662,52
866,156	656,37
866,329	556,02
866,503	584,7
866,676	527,35
866,85	377,85
867,024	418,81
867,197	547,83
867,371	492,54
867,544	480,25
867,718	424,95
867,891	637,94
868,065	599,03
868,238	607,22
868,412	545,78
868,585	508,92
868,759	584,7
868,932	564,22
869,105	539,64
869,279	541,69
869,452	578,55
869,625	508,92
869,799	478,2
869,972	572,41
870,145	510,97
870,319	480,25
870,492	390,14
870,665	510,97
870,838	412,67
871,011	560,12
871,185	521,21
871,358	525,3
871,531	508,92
871,704	500,73
871,877	494,58
872,05	455,67
872,223	433,15
872,396	490,49
872,569	367,61
872,742	414,71
872,915	472,06
873,088	578,55
873,261	478,2
873,434	525,3
873,607	502,78
873,78	498,68
873,953	359,42
874,126	482,3
874,299	478,2
874,471	363,51
874,644	343,03
874,817	402,43
874,99	427
875,163	312,32
875,335	441,34
875,508	349,18
875,681	396,28
875,853	441,34
876,026	230,4
876,199	289,79
876,371	410,62
876,544	310,27
876,717	302,08
876,889	345,08
877,062	330,75
877,234	279,55
877,407	261,12
877,579	328,7
877,752	283,64
877,924	279,55
878,097	240,64
878,269	295,93
878,442	322,56
878,614	295,93
878,786	230,4
878,959	275,45
879,131	304,12
879,303	279,55
879,476	195,58
879,648	201,72
879,82	203,77
879,993	146,43
880,165	236,54
880,337	148,48
880,509	238,59
880,681	326,65
880,854	228,35
881,026	195,58
881,198	214,01
881,37	150,53
881,542	146,43
881,714	203,77
881,886	234,49
882,058	175,1
882,23	179,2
882,402	273,4
882,574	218,11
882,746	259,07
882,918	228,35
883,09	199,68
883,262	201,72
883,434	166,91
883,606	199,68
883,778	140,29
883,95	156,67
884,122	228,35
884,293	189,44
884,465	205,82
884,637	164,86
884,809	162,81
884,98	154,62
885,152	74,75
885,324	230,4
885,496	130,05
885,667	95,23
885,839	173,05
886,011	142,33
886,182	195,58
886,354	201,72
886,525	197,63
886,697	113,66
886,869	134,14
887,04	146,43
887,212	158,72
887,383	125,95
887,555	160,77
887,726	99,33
887,897	84,99
888,069	121,85
888,24	144,38
888,412	123,9
888,583	93,18
888,754	119,81
888,926	84,99
889,097	128
889,268	211,96
889,44	146,43
889,611	164,86
889,782	89,09
889,953	248,83
890,125	187,39
890,296	105,47
890,467	103,42
890,638	128
890,809	150,53
890,98	95,23
891,151	132,09
891,323	70,65
891,494	173,05
891,665	136,19
891,836	113,66
892,007	62,46
892,178	48,13
892,349	62,46
892,52	140,29
892,691	93,18
892,862	103,42
893,032	76,8
893,203	31,74
893,374	125,95
893,545	50,18
893,716	66,56
893,887	138,24
894,057	37,89
894,228	125,95
894,399	44,03
894,57	101,37
894,74	123,9
894,911	68,61
895,082	17,41
895,253	91,13
895,423	19,46
895,594	62,46
895,764	25,6
895,935	-3,07
896,106	31,74
896,276	74,75
896,447	72,7
896,617	15,36
896,788	17,41
896,958	37,89
897,129	1,02
897,299	-11,26
897,47	60,42
897,64	-44,03
897,81	46,08
897,981	84,99
898,151	-21,5
898,322	78,85
898,492	-44,03
898,662	99,33
898,832	101,37
899,003	-13,31
899,173	-19,46
899,343	3,07
899,513	60,42
