Data from sun_USB4F104151__4__16-40-05-113.txt Node

Date: Thu Mar 07 16:40:05 EST 2024
User: lauri
Spectrometer: USB4F10415
Trigger mode: 4
Integration Time (sec): 2,000000E-3
Scans to average: 1
Electric dark correction enabled: true
Nonlinearity correction enabled: false
Boxcar width: 0
XAxis mode: Wavelengths
Number of Pixels in Spectrum: 3648
>>>>>Begin Spectral Data<<<<<
178,204	43,18
178,424	43,18
178,644	43,18
178,864	71,85
179,084	12,46
179,304	80,04
179,524	18,6
179,744	28,84
179,964	20,65
180,184	-5,97
180,404	53,42
180,624	-59,22
180,844	-5,97
181,064	-20,31
181,283	-34,64
181,503	0,17
181,723	-75,6
181,943	73,9
182,163	51,37
182,383	-1,88
182,602	0,17
182,822	51,37
183,042	55,47
183,262	53,42
183,482	-10,07
183,701	18,6
183,921	86,19
184,141	100,52
184,361	-1,88
184,58	-10,07
184,8	71,85
185,02	-1,88
185,239	43,18
185,459	-22,36
185,679	8,36
185,898	20,65
186,118	32,94
186,338	-12,12
186,557	-65,36
186,777	2,22
186,997	-48,98
187,216	14,51
187,436	41,13
187,655	-5,97
187,875	-20,31
188,095	-38,74
188,314	-38,74
188,534	61,61
188,753	20,65
188,973	28,84
189,192	-42,84
189,412	-24,4
189,631	125,1
189,851	-34,64
190,07	0,17
190,29	10,41
190,509	-63,32
190,729	2,22
190,948	94,38
191,168	-5,97
191,387	43,18
191,607	-5,97
191,826	71,85
192,045	-12,12
192,265	22,7
192,484	4,27
192,704	-12,12
192,923	-8,02
193,142	34,99
193,362	16,55
193,581	26,79
193,8	0,17
194,02	0,17
194,239	12,46
194,458	59,56
194,678	41,13
194,897	37,03
195,116	24,75
195,335	20,65
195,555	-38,74
195,774	51,37
195,993	20,65
196,212	-22,36
196,432	-59,22
196,651	86,19
196,87	-28,5
197,089	57,51
197,308	34,99
197,528	-28,5
197,747	-44,88
197,966	47,27
198,185	30,89
198,404	22,7
198,623	20,65
198,842	88,23
199,062	57,51
199,281	-3,93
199,5	16,55
199,719	22,7
199,938	-42,84
200,157	4,27
200,376	-18,26
200,595	-55,12
200,814	49,32
201,033	63,66
201,252	10,41
201,471	47,27
201,69	18,6
201,909	-24,4
202,128	-1,88
202,347	-51,03
202,566	6,31
202,785	-10,07
203,004	59,56
203,223	57,51
203,442	32,94
203,661	82,09
203,879	10,41
204,098	-16,21
204,317	2,22
204,536	41,13
204,755	75,95
204,974	16,55
205,193	28,84
205,411	75,95
205,63	0,17
205,849	-16,21
206,068	67,75
206,287	10,41
206,505	22,7
206,724	30,89
206,943	84,14
207,162	2,22
207,381	2,22
207,599	-51,03
207,818	22,7
208,037	69,8
208,255	67,75
208,474	-5,97
208,693	32,94
208,911	20,65
209,13	26,79
209,349	6,31
209,567	2,22
209,786	22,7
210,005	51,37
210,223	45,23
210,442	30,89
210,661	34,99
210,879	-26,45
211,098	49,32
211,316	22,7
211,535	-1,88
211,753	-34,64
211,972	6,31
212,191	30,89
212,409	65,71
212,628	77,99
212,846	24,75
213,065	6,31
213,283	28,84
213,502	37,03
213,72	30,89
213,938	61,61
214,157	65,71
214,375	-46,93
214,594	-14,17
214,812	22,7
215,031	32,94
215,249	-26,45
215,467	28,84
215,686	4,27
215,904	59,56
216,122	49,32
216,341	49,32
216,559	39,08
216,778	55,47
216,996	57,51
217,214	-5,97
217,432	75,95
217,651	-34,64
217,869	2,22
218,087	41,13
218,306	96,43
218,524	4,27
218,742	10,41
218,96	88,23
219,179	10,41
219,397	-24,4
219,615	14,51
219,833	-8,02
220,051	-46,93
220,27	22,7
220,488	14,51
220,706	71,85
220,924	10,41
221,142	16,55
221,36	69,8
221,578	34,99
221,796	49,32
222,015	37,03
222,233	-20,31
222,451	41,13
222,669	-20,31
222,887	16,55
223,105	16,55
223,323	24,75
223,541	51,37
223,759	0,17
223,977	-14,17
224,195	16,55
224,413	32,94
224,631	-40,79
224,849	49,32
225,067	16,55
225,285	34,99
225,503	-48,98
225,721	-10,07
225,939	39,08
226,157	-48,98
226,375	65,71
226,592	-53,08
226,81	6,31
227,028	43,18
227,246	14,51
227,464	-5,97
227,682	55,47
227,9	-14,17
228,117	12,46
228,335	2,22
228,553	51,37
228,771	0,17
228,989	100,52
229,206	-30,55
229,424	43,18
229,642	-63,32
229,86	-12,12
230,077	-28,5
230,295	-14,17
230,513	22,7
230,731	43,18
230,948	39,08
231,166	22,7
231,384	-18,26
231,601	100,52
231,819	8,36
232,037	45,23
232,254	-75,6
232,472	51,37
232,689	80,04
232,907	-22,36
233,125	26,79
233,342	-10,07
233,56	14,51
233,777	30,89
233,995	90,28
234,213	-1,88
234,43	32,94
234,648	67,75
234,865	-8,02
235,083	6,31
235,3	-22,36
235,518	65,71
235,735	8,36
235,953	90,28
236,17	49,32
236,388	37,03
236,605	-26,45
236,822	4,27
237,04	-24,4
237,257	-36,69
237,475	-3,93
237,692	51,37
237,909	32,94
238,127	26,79
238,344	63,66
238,562	24,75
238,779	112,81
238,996	0,17
239,214	34,99
239,431	47,27
239,648	-61,27
239,865	43,18
240,083	90,28
240,3	45,23
240,517	2,22
240,735	24,75
240,952	61,61
241,169	67,75
241,386	-42,84
241,603	-5,97
241,821	2,22
242,038	-3,93
242,255	34,99
242,472	-42,84
242,689	34,99
242,907	6,31
243,124	77,99
243,341	73,9
243,558	12,46
243,775	-1,88
243,992	57,51
244,209	-20,31
244,426	30,89
244,643	-8,02
244,86	18,6
245,078	-20,31
245,295	16,55
245,512	32,94
245,729	8,36
245,946	18,6
246,163	41,13
246,38	20,65
246,597	14,51
246,814	16,55
247,031	14,51
247,248	-16,21
247,464	6,31
247,681	10,41
247,898	22,7
248,115	-59,22
248,332	-12,12
248,549	-46,93
248,766	-26,45
248,983	67,75
249,2	75,95
249,417	24,75
249,633	-30,55
249,85	37,03
250,067	75,95
250,284	16,55
250,501	53,42
250,717	47,27
250,934	45,23
251,151	6,31
251,368	-71,51
251,585	69,8
251,801	24,75
252,018	16,55
252,235	22,7
252,451	49,32
252,668	90,28
252,885	24,75
253,102	39,08
253,318	12,46
253,535	28,84
253,752	-14,17
253,968	8,36
254,185	-16,21
254,401	-14,17
254,618	12,46
254,835	32,94
255,051	41,13
255,268	10,41
255,484	53,42
255,701	57,51
255,917	43,18
256,134	45,23
256,351	43,18
256,567	47,27
256,784	-34,64
257	0,17
257,217	12,46
257,433	-10,07
257,65	-30,55
257,866	-10,07
258,082	6,31
258,299	24,75
258,515	41,13
258,732	-71,51
258,948	24,75
259,165	-28,5
259,381	-28,5
259,597	10,41
259,814	61,61
260,03	-1,88
260,246	24,75
260,463	-12,12
260,679	-22,36
260,895	22,7
261,112	-16,21
261,328	51,37
261,544	28,84
261,761	16,55
261,977	2,22
262,193	75,95
262,409	96,43
262,626	28,84
262,842	16,55
263,058	92,33
263,274	-20,31
263,49	73,9
263,707	53,42
263,923	-3,93
264,139	32,94
264,355	28,84
264,571	16,55
264,787	63,66
265,004	-16,21
265,22	34,99
265,436	55,47
265,652	28,84
265,868	28,84
266,084	8,36
266,3	-14,17
266,516	-32,6
266,732	-5,97
266,948	12,46
267,164	-3,93
267,38	28,84
267,596	-22,36
267,812	26,79
268,028	-57,17
268,244	2,22
268,46	100,52
268,676	-40,79
268,892	41,13
269,108	-24,4
269,324	45,23
269,54	-16,21
269,756	34,99
269,972	-18,26
270,188	39,08
270,403	45,23
270,619	-14,17
270,835	32,94
271,051	63,66
271,267	14,51
271,483	71,85
271,698	51,37
271,914	-14,17
272,13	37,03
272,346	-12,12
272,562	-5,97
272,777	67,75
272,993	16,55
273,209	-8,02
273,425	-16,21
273,64	18,6
273,856	-16,21
274,072	0,17
274,287	0,17
274,503	6,31
274,719	-61,27
274,934	-3,93
275,15	65,71
275,366	30,89
275,581	73,9
275,797	26,79
276,012	49,32
276,228	-1,88
276,444	-3,93
276,659	4,27
276,875	34,99
277,09	51,37
277,306	20,65
277,521	-24,4
277,737	-14,17
277,952	16,55
278,168	34,99
278,383	43,18
278,599	10,41
278,814	4,27
279,03	59,56
279,245	-22,36
279,461	8,36
279,676	-46,93
279,892	2,22
280,107	-14,17
280,322	-1,88
280,538	63,66
280,753	69,8
280,969	6,31
281,184	77,99
281,399	110,76
281,615	43,18
281,83	49,32
282,045	37,03
282,26	-3,93
282,476	114,86
282,691	41,13
282,906	71,85
283,122	-8,02
283,337	51,37
283,552	-8,02
283,767	65,71
283,983	37,03
284,198	-1,88
284,413	32,94
284,628	71,85
284,843	20,65
285,058	118,95
285,274	34,99
285,489	24,75
285,704	2,22
285,919	24,75
286,134	22,7
286,349	51,37
286,564	71,85
286,779	14,51
286,995	61,61
287,21	-10,07
287,425	34,99
287,64	10,41
287,855	-12,12
288,07	-32,6
288,285	47,27
288,5	-30,55
288,715	57,51
288,93	0,17
289,145	18,6
289,36	6,31
289,575	118,95
289,79	53,42
290,004	14,51
290,219	39,08
290,434	41,13
290,649	-24,4
290,864	16,55
291,079	-34,64
291,294	22,7
291,509	-5,97
291,724	-20,31
291,938	-18,26
292,153	69,8
292,368	100,52
292,583	59,56
292,798	10,41
293,012	2,22
293,227	18,6
293,442	14,51
293,657	-28,5
293,871	24,75
294,086	30,89
294,301	84,14
294,516	8,36
294,73	-26,45
294,945	65,71
295,16	63,66
295,374	41,13
295,589	-18,26
295,804	69,8
296,018	16,55
296,233	-16,21
296,447	73,9
296,662	-30,55
296,877	41,13
297,091	-3,93
297,306	71,85
297,52	43,18
297,735	-32,6
297,949	12,46
298,164	16,55
298,378	59,56
298,593	53,42
298,807	10,41
299,022	55,47
299,236	24,75
299,451	-1,88
299,665	55,47
299,88	14,51
300,094	43,18
300,309	0,17
300,523	8,36
300,737	26,79
300,952	32,94
301,166	69,8
301,381	71,85
301,595	-5,97
301,809	-73,56
302,024	-48,98
302,238	-16,21
302,452	-32,6
302,667	51,37
302,881	20,65
303,095	-14,17
303,309	63,66
303,524	8,36
303,738	41,13
303,952	51,37
304,166	24,75
304,381	-24,4
304,595	12,46
304,809	8,36
305,023	22,7
305,237	30,89
305,452	26,79
305,666	-16,21
305,88	104,62
306,094	2,22
306,308	30,89
306,522	30,89
306,736	47,27
306,95	59,56
307,164	-18,26
307,379	37,03
307,593	0,17
307,807	37,03
308,021	-5,97
308,235	37,03
308,449	-10,07
308,663	14,51
308,877	-42,84
309,091	0,17
309,305	8,36
309,519	-14,17
309,733	47,27
309,947	-1,88
310,161	53,42
310,374	45,23
310,588	-10,07
310,802	-12,12
311,016	-26,45
311,23	67,75
311,444	57,51
311,658	65,71
311,872	47,27
312,085	-3,93
312,299	37,03
312,513	14,51
312,727	90,28
312,941	20,65
313,154	14,51
313,368	-1,88
313,582	49,32
313,796	24,75
314,009	45,23
314,223	-32,6
314,437	-10,07
314,651	55,47
314,864	34,99
315,078	12,46
315,292	-16,21
315,505	30,89
315,719	8,36
315,933	24,75
316,146	0,17
316,36	53,42
316,573	20,65
316,787	-46,93
317,001	41,13
317,214	-5,97
317,428	26,79
317,641	-1,88
317,855	41,13
318,068	24,75
318,282	-30,55
318,495	18,6
318,709	37,03
318,922	-22,36
319,136	61,61
319,349	20,65
319,563	92,33
319,776	-20,31
319,99	-28,5
320,203	57,51
320,417	114,86
320,63	18,6
320,843	12,46
321,057	8,36
321,27	69,8
321,483	-20,31
321,697	-10,07
321,91	4,27
322,124	49,32
322,337	-10,07
322,55	-5,97
322,763	47,27
322,977	-3,93
323,19	18,6
323,403	-55,12
323,617	-3,93
323,83	-73,56
324,043	30,89
324,256	6,31
324,469	43,18
324,683	-12,12
324,896	24,75
325,109	-18,26
325,322	-8,02
325,535	6,31
325,748	47,27
325,962	59,56
326,175	39,08
326,388	-22,36
326,601	39,08
326,814	75,95
327,027	16,55
327,24	26,79
327,453	-1,88
327,666	34,99
327,879	-38,74
328,092	53,42
328,305	118,95
328,518	24,75
328,731	16,55
328,944	57,51
329,157	84,14
329,37	45,23
329,583	-14,17
329,796	-18,26
330,009	51,37
330,222	55,47
330,435	28,84
330,648	63,66
330,861	-30,55
331,073	131,24
331,286	51,37
331,499	-12,12
331,712	16,55
331,925	43,18
332,138	-24,4
332,35	2,22
332,563	41,13
332,776	-40,79
332,989	-3,93
333,202	51,37
333,414	65,71
333,627	34,99
333,84	37,03
334,053	37,03
334,265	10,41
334,478	-1,88
334,691	8,36
334,903	67,75
335,116	10,41
335,329	4,27
335,541	12,46
335,754	71,85
335,966	2,22
336,179	51,37
336,392	37,03
336,604	-40,79
336,817	47,27
337,029	63,66
337,242	77,99
337,454	18,6
337,667	6,31
337,88	-3,93
338,092	12,46
338,305	75,95
338,517	41,13
338,729	8,36
338,942	16,55
339,154	26,79
339,367	8,36
339,579	22,7
339,792	67,75
340,004	26,79
340,217	32,94
340,429	-10,07
340,641	-24,4
340,854	37,03
341,066	102,57
341,278	30,89
341,491	0,17
341,703	59,56
341,915	16,55
342,128	65,71
342,34	37,03
342,552	67,75
342,764	55,47
342,977	34,99
343,189	55,47
343,401	-24,4
343,613	86,19
343,826	-40,79
344,038	45,23
344,25	63,66
344,462	22,7
344,674	-8,02
344,886	65,71
345,099	65,71
345,311	-22,36
345,523	30,89
345,735	20,65
345,947	14,51
346,159	39,08
346,371	2,22
346,583	2,22
346,795	8,36
347,007	12,46
347,219	-22,36
347,431	28,84
347,643	73,9
347,855	16,55
348,067	16,55
348,279	18,6
348,491	2,22
348,703	67,75
348,915	-14,17
349,127	73,9
349,339	32,94
349,551	32,94
349,763	41,13
349,975	2,22
350,187	8,36
350,399	51,37
350,61	10,41
350,822	16,55
351,034	55,47
351,246	14,51
351,458	45,23
351,669	65,71
351,881	98,47
352,093	34,99
352,305	47,27
352,517	67,75
352,728	22,7
352,94	67,75
353,152	-8,02
353,363	-44,88
353,575	73,9
353,787	59,56
353,999	55,47
354,21	26,79
354,422	51,37
354,633	22,7
354,845	14,51
355,057	26,79
355,268	65,71
355,48	82,09
355,692	61,61
355,903	-8,02
356,115	32,94
356,326	45,23
356,538	90,28
356,749	6,31
356,961	71,85
357,172	32,94
357,384	6,31
357,595	18,6
357,807	104,62
358,018	34,99
358,23	32,94
358,441	0,17
358,653	32,94
358,864	65,71
359,075	-3,93
359,287	-10,07
359,498	-22,36
359,709	20,65
359,921	-3,93
360,132	55,47
360,344	80,04
360,555	26,79
360,766	39,08
360,977	32,94
361,189	14,51
361,4	137,38
361,611	28,84
361,823	67,75
362,034	6,31
362,245	65,71
362,456	77,99
362,667	-16,21
362,879	106,67
363,09	24,75
363,301	41,13
363,512	16,55
363,723	61,61
363,935	98,47
364,146	59,56
364,357	2,22
364,568	32,94
364,779	53,42
364,99	24,75
365,201	69,8
365,412	22,7
365,623	133,29
365,834	65,71
366,045	55,47
366,256	90,28
366,467	106,67
366,678	55,47
366,889	116,9
367,1	-10,07
367,311	12,46
367,522	63,66
367,733	84,14
367,944	55,47
368,155	104,62
368,366	41,13
368,577	43,18
368,788	86,19
368,999	88,23
369,209	51,37
369,42	69,8
369,631	90,28
369,842	34,99
370,053	41,13
370,264	69,8
370,474	53,42
370,685	51,37
370,896	104,62
371,107	84,14
371,317	75,95
371,528	112,81
371,739	73,9
371,95	53,42
372,16	49,32
372,371	55,47
372,582	80,04
372,792	94,38
373,003	137,38
373,214	26,79
373,424	118,95
373,635	34,99
373,846	123,05
374,056	108,71
374,267	26,79
374,477	67,75
374,688	63,66
374,898	145,58
375,109	77,99
375,319	96,43
375,53	123,05
375,74	86,19
375,951	118,95
376,161	69,8
376,372	121
376,582	131,24
376,793	110,76
377,003	106,67
377,214	155,82
377,424	153,77
377,635	73,9
377,845	112,81
378,055	73,9
378,266	182,44
378,476	104,62
378,686	92,33
378,897	116,9
379,107	102,57
379,317	75,95
379,528	57,51
379,738	127,14
379,948	118,95
380,158	80,04
380,369	131,24
380,579	98,47
380,789	116,9
380,999	100,52
381,21	164,01
381,42	-14,17
381,63	90,28
381,84	108,71
382,05	43,18
382,261	90,28
382,471	73,9
382,681	41,13
382,891	147,62
383,101	90,28
383,311	69,8
383,521	141,48
383,731	71,85
383,941	180,39
384,151	161,96
384,361	223,4
384,571	133,29
384,781	139,43
384,991	166,06
385,201	108,71
385,411	143,53
385,621	215,21
385,831	147,62
386,041	192,68
386,251	155,82
386,461	164,01
386,671	145,58
386,881	231,59
387,091	172,2
387,301	100,52
387,511	272,55
387,72	168,1
387,93	297,13
388,14	250,02
388,35	252,07
388,56	317,61
388,769	311,46
388,979	290,98
389,189	358,57
389,399	293,03
389,609	405,67
389,818	358,57
390,028	286,89
390,238	331,94
390,447	377
390,657	137,38
390,867	202,92
391,076	90,28
391,286	141,48
391,496	104,62
391,705	139,43
391,915	139,43
392,125	155,82
392,334	174,25
392,544	153,77
392,753	247,97
392,963	276,65
393,172	256,17
393,382	243,88
393,591	219,3
393,801	288,93
394,01	327,85
394,22	276,65
394,429	161,96
394,639	243,88
394,848	188,58
395,058	231,59
395,267	207,02
395,477	219,3
395,686	211,11
395,895	354,47
396,105	415,91
396,314	532,64
396,524	473,25
396,733	698,53
396,942	805,02
397,152	934,04
397,361	831,65
397,57	1015,96
397,78	1024,16
397,989	1210,52
398,198	1314,97
398,407	1398,93
398,617	1220,76
398,826	1419,41
399,035	1288,34
399,244	1470,61
399,453	1355,93
399,663	1718,42
399,872	1667,22
400,081	1880,21
400,29	1722,51
400,499	1822,86
400,708	1538,2
400,917	1826,96
401,127	1603,73
401,336	2005,13
401,545	1900,69
401,754	1996,94
401,963	1869,97
402,172	1966,22
402,381	1691,79
402,59	2148,49
402,799	1820,81
403,008	2023,56
403,217	1845,39
403,426	2037,9
403,635	1812,62
403,844	1927,31
404,053	1800,34
404,262	1898,64
404,471	1783,95
404,68	2072,72
404,888	1777,81
405,097	1845,39
405,306	2177,16
405,515	2156,68
405,724	1986,7
405,933	2248,84
406,142	2261,13
406,35	2166,92
406,559	2590,85
406,768	2439,3
406,977	2373,77
407,185	2742,4
407,394	2336,9
407,603	2564,23
407,812	2435,21
408,02	2568,32
408,229	2175,11
408,438	2384,01
408,646	2377,86
408,855	2435,21
409,064	2408,58
409,272	2797,7
409,481	2728,07
409,69	3006,59
409,898	2994,3
410,107	3172,47
410,315	2945,15
410,524	3186,81
410,733	3133,56
410,941	3035,26
411,15	2879,61
411,358	3303,54
411,567	3104,89
411,775	3383,42
411,984	3250,3
412,192	3446,9
412,401	3391,61
412,609	3369,08
412,818	3229,82
413,026	3514,49
413,234	3350,65
413,443	3504,25
413,651	3385,46
413,86	3539,06
414,068	3399,8
414,276	3596,4
414,485	3371,13
414,693	3586,16
414,901	3653,75
415,11	3696,75
415,318	3418,23
415,526	3741,81
415,734	3465,33
415,943	3633,27
416,151	3367,03
416,359	3547,25
416,567	3188,86
416,776	3530,87
416,984	3537,01
417,192	3614,84
417,4	3635,32
417,608	3547,25
417,817	3430,52
418,025	3795,06
418,233	3518,58
418,441	3711,09
418,649	3702,9
418,857	4116,59
419,065	3711,09
419,273	3786,86
419,481	3713,14
419,689	4296,81
419,897	3985,52
420,105	4159,6
420,313	3815,54
420,521	3915,89
420,729	3643,51
420,937	3917,93
421,145	3696,75
421,353	3879,02
421,561	3795,06
421,769	3956,85
421,977	4147,31
422,185	3821,68
422,393	4042,86
422,601	4229,23
422,809	4153,45
423,017	4038,77
423,224	3825,78
423,432	4350,06
423,64	3977,33
423,848	4442,21
424,056	3809,39
424,263	4319,34
424,471	4255,85
424,679	4098,16
424,887	4261,99
425,094	4227,18
425,302	3956,85
425,51	4235,37
425,718	4096,11
425,925	4276,33
426,133	4147,31
426,341	4446,31
426,548	4333,67
426,756	4305
426,964	4120,68
427,171	4515,94
427,379	4259,95
427,586	4188,27
427,794	3977,33
428,001	4073,58
428,209	3651,7
428,417	3549,3
428,624	3604,6
428,832	3465,33
429,039	3160,19
429,247	3203,19
429,454	3565,68
429,662	4178,03
429,869	3856,5
430,076	4401,26
430,284	3940,46
430,491	4595,81
430,699	4909,15
430,906	4839,52
431,114	4702,31
431,321	5105,76
431,528	4800,61
431,736	5507,16
431,943	5646,42
432,15	5417,05
432,358	5226,59
432,565	5449,82
432,772	5105,76
432,979	5660,76
433,187	5374,04
433,394	5705,81
433,601	6244,43
433,808	5900,37
434,016	6084,69
434,223	6525
434,43	6692,93
434,637	6740,04
434,844	6973,5
435,052	6973,5
435,259	6766,66
435,466	6727,75
435,673	6592,58
435,88	6901,83
436,087	6932,54
436,294	6895,68
436,501	6275,15
436,708	6305,87
436,915	6330,44
437,122	6744,13
437,329	6254,67
437,537	6871,11
437,743	6619,21
437,95	6711,36
438,157	6737,99
438,364	7340,09
438,571	6975,55
438,778	6975,55
438,985	7565,37
439,192	7159,87
439,399	7430,2
439,606	7233,6
439,813	7864,37
440,02	8376,36
440,227	7903,28
440,433	8028,21
440,64	8112,17
440,847	8083,5
441,054	7970,87
441,261	8562,73
441,467	7995,44
441,674	8276,01
441,881	8525,86
442,088	8618,02
442,294	8198,19
442,501	8509,48
442,708	8128,56
442,914	8949,79
443,121	8648,74
443,328	8495,15
443,534	9054,24
443,741	8390,7
443,948	8077,36
444,154	8833,06
444,361	8183,85
444,568	8259,63
444,774	8192,05
444,981	8319,02
445,187	8312,88
445,394	8939,55
445,6	8611,88
445,807	9633,82
446,013	8654,89
446,22	8925,22
446,426	9105,44
446,633	9390,11
446,839	9394,2
447,046	9148,45
447,252	9562,14
447,459	9580,57
447,665	9068,58
447,871	9680,92
448,078	9855
448,284	9541,66
448,491	9644,06
448,697	10002,45
448,903	10248,21
449,11	10500,11
449,316	10004,5
449,522	10516,49
449,728	10428,43
449,935	10530,83
450,141	10459,15
450,347	10727,43
450,553	9914,39
450,76	9900,05
450,966	10051,6
451,172	9838,61
451,378	9895,96
451,584	9900,05
451,791	9840,66
451,997	10008,59
452,203	9994,26
452,409	10182,67
452,615	10199,06
452,821	9846,8
453,027	9617,43
453,233	10588,17
453,44	10143,76
453,646	10534,92
453,852	10450,96
454,058	10893,32
454,264	10465,29
454,47	11364,35
454,676	10971,14
454,882	11751,42
455,088	10743,81
455,294	11393,02
455,5	11372,54
455,705	11638,78
455,911	11218,94
456,117	11360,25
456,323	11436,03
456,529	10827,78
456,735	11692,02
456,941	11524,09
457,147	11366,4
457,352	11479,04
457,558	11206,66
457,764	11898,87
457,97	11636,73
458,176	11694,07
458,381	11636,73
458,587	11620,35
458,793	11778,04
458,999	11575,29
459,204	12662,76
459,41	13201,38
459,616	12257,26
459,821	12838,89
460,027	13215,71
460,233	13516,76
460,438	12505,07
460,644	13107,17
460,85	13000,68
461,055	13221,86
461,261	13336,54
461,466	12904,42
461,672	12570,6
461,878	13727,71
462,083	12980,2
462,289	12984,29
462,494	13148,13
462,7	12890,09
462,905	12505,07
463,111	13367,26
463,316	13434,85
463,522	13899,73
463,727	13920,21
463,932	14372,82
464,138	14395,34
464,343	14602,19
464,549	14346,19
464,754	15288,26
464,959	15038,41
465,165	15302,59
465,37	14520,27
465,575	14716,87
465,781	15273,92
465,986	15628,22
466,191	15210,43
466,397	15511,49
466,602	14837,7
466,807	15499,2
467,012	15826,87
467,218	16105,4
467,423	16119,73
467,628	16615,34
467,833	17465,25
468,038	17000,36
468,244	16580,53
468,449	17344,42
468,654	16603,05
468,859	16932,78
469,064	16830,38
469,269	16709,55
469,474	17242,02
469,679	17713,05
469,885	17242,02
470,09	18309,01
470,295	18454,42
470,5	18249,62
470,705	18356,11
470,91	18235,28
471,115	18380,69
471,32	19406,72
471,525	19249,03
471,73	19328,9
471,935	19371,91
472,139	19634,05
472,344	19267,46
472,549	19881,85
472,754	20154,23
472,959	20635,5
473,164	19904,38
473,369	19951,48
473,574	20887,4
473,778	20936,56
473,983	21227,37
474,188	21487,46
474,393	20694,89
474,598	21114,73
474,802	20698,99
475,007	21122,92
475,212	21503,84
475,417	21266,28
475,621	21886,81
475,826	22411,09
476,031	22337,37
476,235	22968,14
476,44	23140,17
476,645	23234,38
476,849	23437,13
477,054	24088,38
477,259	23828,29
477,463	24067,9
477,668	23842,62
477,872	25030,44
478,077	24747,83
478,282	25034,54
478,486	24803,12
478,691	25599,78
478,895	25554,72
479,1	26115,87
479,304	26461,97
479,509	26048,29
479,713	26595,09
479,918	26398,49
480,122	26634
480,326	27375,37
480,531	27803,39
480,735	27629,32
480,94	27764,48
481,144	28493,56
481,348	27762,44
481,553	28675,83
481,757	27899,65
481,961	28282,62
482,166	28626,68
482,37	28919,54
482,574	28438,26
482,778	28749,56
482,983	29107,95
483,187	28851,95
483,391	29316,84
483,595	29036,27
483,8	28190,46
484,004	28329,72
484,208	27825,92
484,412	27494,15
484,616	26756,88
484,821	26781,46
485,025	25736,99
485,229	26713,88
485,433	26636,05
485,637	27412,23
485,841	27471,62
486,045	28059,39
486,249	28012,29
486,453	28661,49
486,657	28862,19
486,861	29527,78
487,065	28868,34
487,269	29591,27
487,473	29818,6
487,677	29865,7
487,881	30422,75
488,085	31262,41
488,289	31350,48
488,493	31641,29
488,697	31909,57
488,901	32218,82
489,105	32374,46
489,309	33015,47
489,512	32374,46
489,716	32851,64
489,92	32063,17
490,124	32376,51
490,328	32720,57
490,531	32298,69
490,735	32083,65
490,939	32011,97
491,143	31723,21
491,346	32468,67
491,55	32720,57
491,754	33298,09
491,958	33328,81
492,161	33171,12
492,365	33349,29
492,569	33341,1
492,772	33343,15
492,976	33980,07
493,18	34070,18
493,383	34983,57
493,587	34915,99
493,79	34858,65
493,994	34426,53
494,197	34977,43
494,401	34786,97
494,605	34965,14
494,808	34903,7
495,012	35407,5
495,215	35065,49
495,419	35454,61
495,622	35301,01
495,825	35985,03
496,029	35268,24
496,232	35557
496,436	35135,12
496,639	35280,53
496,843	34229,92
497,046	35311,25
497,249	34907,8
497,453	35069,59
497,656	34518,68
497,859	34786,97
498,063	34883,22
498,266	35606,16
498,469	35163,79
498,673	34502,3
498,876	34696,86
499,079	34780,82
499,282	33742,5
499,485	33920,68
499,689	33599,15
499,892	34004,64
500,095	33593
500,298	34498,2
500,501	33742,5
500,705	34252,45
500,908	33699,5
501,111	33918,63
501,314	34102,95
501,517	34537,12
501,72	34426,53
501,923	34035,36
502,126	34426,53
502,329	34555,55
502,532	33975,97
502,735	33920,68
502,938	34141,86
503,141	34059,94
503,344	34170,53
503,547	34279,07
503,75	34444,96
503,953	35305,1
504,156	35184,27
504,359	35540,62
504,562	35581,58
504,765	36165,25
504,968	36349,57
505,17	36028,04
505,373	35899,01
505,576	35980,93
505,779	35985,03
505,982	36126,34
506,185	35911,3
506,387	35554,96
506,59	35585,68
506,793	35907,21
506,996	35374,73
507,198	36220,55
507,401	35610,25
507,604	36034,18
507,807	36546,17
508,009	36255,36
508,212	36482,69
508,415	37086,84
508,617	36892,28
508,82	36767,35
509,022	35856,01
509,225	36869,75
509,428	36609,66
509,63	37592,69
509,833	37033,59
510,035	37787,24
510,238	37162,61
510,44	37719,66
510,643	38076,01
510,845	37840,49
511,048	37219,95
511,25	37637,74
511,453	36968,05
511,655	38532,7
511,858	37236,34
512,06	37314,16
512,262	37576,3
512,465	37310,07
512,667	37193,33
512,87	37201,52
513,072	36873,85
513,274	36966,01
513,477	37467,76
513,679	37396,08
513,881	37641,84
514,084	37850,73
514,286	37772,91
514,488	38012,52
514,69	38475,36
514,893	37645,93
515,095	36941,43
515,297	36521,6
515,499	35487,37
515,701	34985,62
515,904	34721,43
516,106	34567,84
516,308	34789,02
516,51	34782,87
516,712	35065,49
516,914	35104,4
517,116	35413,65
517,318	35292,82
517,52	35284,62
517,722	35896,97
517,925	36183,68
518,127	37043,83
518,329	36812,41
518,531	37189,24
518,733	37965,42
518,935	38547,04
519,136	38522,46
519,338	39267,92
519,54	38563,42
519,742	38821,47
519,944	38999,64
520,146	39351,89
520,348	39472,72
520,55	40060,49
520,752	40089,16
520,954	40228,42
521,155	39431,76
521,357	40267,33
521,559	39497,3
521,761	40166,98
521,963	40113,73
522,164	40171,08
522,366	39941,71
522,568	40750,65
522,77	40619,58
522,971	42034,73
523,173	41668,14
523,375	41709,1
523,576	41528,88
523,778	41596,46
523,98	41643,57
524,181	41678,38
524,383	41449,01
524,584	41920,04
524,786	40967,74
524,988	39835,21
525,189	39657,04
525,391	39239,25
525,592	38583,9
525,794	38628,96
525,995	38358,63
526,197	38880,86
526,398	38475,36
526,6	39255,64
526,801	39487,06
527,003	39753,29
527,204	39677,52
527,406	40191,56
527,607	40406,59
527,808	41104,95
528,01	40336,96
528,211	40730,17
528,412	41203,25
528,614	41383,48
528,815	41127,48
529,016	42022,44
529,218	40875,58
529,419	41051,7
529,62	40994,36
529,822	41227,83
530,023	41276,98
530,224	41469,49
530,425	40965,69
530,626	40750,65
530,828	40097,35
531,029	40476,23
531,23	39980,62
531,431	39442
531,632	39214,68
531,833	38907,48
532,035	38686,3
532,236	39186
532,437	39145,05
532,638	38854,23
532,839	38565,47
533,04	38737,5
533,241	38510,18
533,442	39130,71
533,643	39124,57
533,844	38950,49
534,045	39052,89
534,246	39198,29
534,447	39515,73
534,648	39896,65
534,849	39763,53
535,05	40377,92
535,251	39974,47
535,451	39388,75
535,652	39333,46
535,853	38823,51
536,054	38344,29
536,255	39013,98
536,456	38782,55
536,657	39151,19
536,857	38774,36
537,058	38725,21
537,259	38934,1
537,46	38829,66
537,66	38831,71
537,861	38692,44
538,062	38227,56
538,263	38497,89
538,463	37617,26
538,664	37836,39
538,865	37252,72
539,065	37609,07
539,266	36603,52
539,466	37095,03
539,667	36370,05
539,868	37510,77
540,068	36734,59
540,269	36879,99
540,469	36902,52
540,67	36884,09
540,87	37228,15
541,071	37437,04
541,271	36966,01
541,472	37641,84
541,672	36736,63
541,873	36978,29
542,073	36572,8
542,274	37576,3
542,474	36519,55
542,675	37281,39
542,875	37398,13
543,075	37449,33
543,276	36726,39
543,476	37684,84
543,676	36914,81
543,877	37576,3
544,077	37437,04
544,277	37197,43
544,478	36802,17
544,678	37066,36
544,878	36634,24
545,078	37545,58
545,279	36763,26
545,479	37199,48
545,679	37033,59
545,879	37033,59
546,079	36335,23
546,28	36734,59
546,48	36052,61
546,68	36482,69
546,88	36529,79
547,08	36902,52
547,28	36142,72
547,48	36071,04
547,68	36302,46
547,88	36210,31
548,081	36523,65
548,281	36435,58
548,481	36288,13
548,681	36814,46
548,881	37099,12
549,081	36816,5
549,28	36003,46
549,48	36513,41
549,68	36609,66
549,88	37146,23
550,08	36800,12
550,28	36966,01
550,48	36368
550,68	37215,86
550,88	36834,94
551,08	37029,49
551,279	36800,12
551,479	36365,95
551,679	36550,27
551,879	36501,12
552,079	36492,93
552,278	36537,98
552,478	36423,29
552,678	36974,2
552,878	36716,15
553,077	36480,64
553,277	36505,21
553,477	36994,68
553,676	36945,53
553,876	36961,91
554,076	36830,84
554,275	36816,5
554,475	35911,3
554,674	36683,39
554,874	37078,64
555,074	36861,56
555,273	36206,21
555,473	36355,71
555,672	36204,16
555,872	36236,93
556,071	36009,61
556,271	35788,42
556,47	36017,8
556,67	35909,25
556,869	35722,89
557,068	36097,67
557,268	35098,26
557,467	35339,92
557,667	34920,09
557,866	34862,74
558,065	34410,14
558,265	33971,88
558,464	33701,54
558,663	34819,74
558,863	33601,19
559,062	35042,96
559,261	34152,1
559,461	35116,69
559,66	34330,27
559,859	34872,98
560,058	34389,66
560,258	34506,4
560,457	34406,05
560,656	34270,88
560,855	34240,16
561,054	34619,03
561,253	34055,84
561,453	34920,09
561,652	35120,79
561,851	35233,43
562,05	34930,33
562,249	34768,54
562,448	35077,78
562,647	34487,96
562,846	34303,65
563,045	34684,57
563,244	33906,34
563,443	34600,6
563,642	33539,75
563,841	34424,48
564,04	33826,47
564,239	34303,65
564,438	34119,33
564,637	34352,8
564,836	34131,62
565,035	33140,4
565,234	33451,69
565,432	33035,95
565,631	33584,81
565,83	33658,54
566,029	33480,36
566,228	33576,62
566,427	33257,14
566,625	33803,94
566,824	33074,87
567,023	33584,81
567,222	32933,56
567,42	33476,27
567,619	32900,79
567,818	32327,36
568,016	32595,64
568,215	32782,01
568,414	32155,33
568,612	32771,77
568,811	31971,01
569,01	32595,64
569,208	31370,96
569,407	31997,63
569,605	31203,02
569,804	31680,2
570,002	31024,85
570,201	31874,76
570,4	31317,71
570,598	31526,6
570,797	31293,13
570,995	32229,05
571,193	31399,63
571,392	32018,11
571,59	31516,36
571,789	31676,1
571,987	31258,32
572,186	31678,15
572,384	31141,58
572,582	31405,77
572,781	31575,75
572,979	31497,93
573,177	31803,08
573,376	31676,1
573,574	30428,89
573,772	31358,67
573,971	31407,82
574,169	31002,32
574,367	30473,95
574,565	30695,13
574,763	30676,69
574,962	30453,47
575,16	30314,2
575,358	30631,64
575,556	30449,37
575,754	31196,88
575,952	30150,37
576,151	30729,94
576,349	30551,77
576,547	30365,4
576,745	29818,6
576,943	30166,75
577,141	29959,91
577,339	29939,43
577,537	29964
577,735	30310,11
577,933	29454,06
578,131	30295,77
578,329	30015,2
578,527	29728,49
578,725	30213,85
578,923	30944,98
579,121	30521,05
579,319	31045,33
579,516	31043,28
579,714	30754,52
579,912	30899,92
580,11	30938,83
580,308	31706,82
580,506	31706,82
580,704	31276,75
580,901	32698,04
581,099	32165,57
581,297	32419,52
581,495	32790,2
581,692	33502,89
581,89	33459,88
582,088	33271,47
582,285	32700,09
582,483	33369,77
582,681	33134,26
582,878	33089,2
583,076	33228,46
583,274	33726,12
583,471	33265,33
583,669	33455,79
583,866	33021,62
584,064	33191,6
584,262	33144,5
584,459	33035,95
584,657	32620,22
584,854	33279,66
585,052	32038,59
585,249	32741,05
585,447	32786,1
585,644	32904,88
585,841	32458,43
586,039	32902,84
586,236	32362,17
586,434	32698,04
586,631	32448,19
586,828	32536,25
587,026	32448,19
587,223	32587,45
587,42	31583,94
587,618	31481,55
587,815	30457,56
588,012	30197,47
588,21	29800,16
588,407	29552,36
588,604	28940,02
588,801	29134,57
588,999	28903,15
589,196	28931,83
589,393	29689,57
589,59	29718,25
589,787	30064,35
589,984	30418,65
590,182	29654,76
590,379	30146,27
590,576	30090,98
590,773	30432,99
590,97	30224,09
591,167	30711,51
591,364	29871,84
591,561	30072,54
591,758	30158,56
591,955	30533,34
592,152	30510,81
592,349	30951,12
592,546	31145,68
592,743	30693,08
592,94	30281,44
593,137	30633,69
593,334	30719,7
593,531	30344,92
593,727	30318,3
593,924	30088,93
594,121	29665
594,318	30486,23
594,515	29603,56
594,712	29994,72
594,908	30117,6
595,105	30549,72
595,302	30297,82
595,499	30355,16
595,696	30265,05
595,892	30328,54
596,089	30213,85
596,286	30265,05
596,482	30199,52
596,679	30326,49
596,876	29945,57
597,072	29697,77
597,269	29738,72
597,466	29359,85
597,662	29239,02
597,859	30090,98
598,055	29648,61
598,252	29603,56
598,448	29880,03
598,645	30115,55
598,841	29896,42
599,038	30025,44
599,234	29708,01
599,431	29331,18
599,627	29716,2
599,824	29892,32
600,02	29386,47
600,217	30054,11
600,413	29413,1
600,609	29439,72
600,806	28901,11
601,002	29234,92
601,198	28923,63
601,395	29443,82
601,591	29097,71
601,787	29396,71
601,984	29277,93
602,18	30265,05
602,376	29808,36
602,572	29779,68
602,769	29767,4
602,965	29794,02
603,161	29761,25
603,357	29656,81
603,553	29447,91
603,75	30136,03
603,946	29636,33
604,142	29910,75
604,338	29236,97
604,534	29824,74
604,73	29066,99
604,926	29480,68
605,122	30170,85
605,318	29859,56
605,514	29589,22
605,71	29984,48
605,906	29712,1
606,102	29914,85
606,298	30275,29
606,494	30066,4
606,69	30152,41
606,886	30508,76
607,082	30174,94
607,278	30527,19
607,474	30031,58
607,67	30275,29
607,866	29595,37
608,062	30490,33
608,257	29691,62
608,453	30457,56
608,649	30355,16
608,845	30408,41
609,041	30414,55
609,236	30625,5
609,432	29904,61
609,628	30123,74
609,824	30326,49
610,019	30029,54
610,215	30363,36
610,411	31545,03
610,606	30645,98
610,802	31239,89
610,998	30447,32
611,193	30570,2
611,389	29740,77
611,584	30392,03
611,78	30201,57
611,976	30768,85
612,171	31098,58
612,367	31305,42
612,562	31000,27
612,758	30713,56
612,953	30688,98
613,149	31096,53
613,344	30336,73
613,539	31575,75
613,735	31272,65
613,93	31346,38
614,126	31647,43
614,321	32177,86
614,517	31522,51
614,712	31039,19
614,907	30826,2
615,103	31203,02
615,298	31078,1
615,493	31276,75
615,688	30594,78
615,884	31448,78
616,079	30879,44
616,274	31426,25
616,47	31272,65
616,665	31966,91
616,86	31749,83
617,055	31704,77
617,25	31631,05
617,445	32511,67
617,641	31456,97
617,836	33144,5
618,031	31956,68
618,226	32503,48
618,421	32005,83
618,616	32945,84
618,811	32560,83
619,006	32669,37
619,201	31973,06
619,396	32874,17
619,591	32702,14
619,786	33308,33
619,981	31805,13
620,176	33011,38
620,371	31907,52
620,566	32773,81
620,761	32523,96
620,956	32872,12
621,151	32202,43
621,346	31792,84
621,541	31174,35
621,735	31870,66
621,93	31227,6
622,125	31491,79
622,32	30895,83
622,515	31940,29
622,709	31616,71
622,904	31321,8
623,099	31135,44
623,294	31479,5
623,488	30914,26
623,683	31508,17
623,878	29837,03
624,072	30373,6
624,267	30480,09
624,462	30060,26
624,656	29849,32
624,851	30564,06
625,046	29724,39
625,24	29972,19
625,435	29830,88
625,629	30084,83
625,824	29669,09
626,018	29877,99
626,213	28831,47
626,407	29578,98
626,602	28540,66
626,796	28776,18
626,991	27983,62
627,185	27225,87
627,38	26803,99
627,574	26826,51
627,768	26660,63
627,963	26986,25
628,157	26713,88
628,352	27389,7
628,546	26750,74
628,74	27197,2
628,935	26523,41
629,129	27068,17
629,323	26642,2
629,517	26640,15
629,712	26373,91
629,906	26654,48
630,1	26846,99
630,294	26887,95
630,489	26642,2
630,683	27459,34
630,877	26400,54
631,071	26455,83
631,265	26474,26
631,459	27174,67
631,653	26914,58
631,848	27297,55
632,042	27408,14
632,236	27694,85
632,43	27676,42
632,624	28190,46
632,818	27416,33
633,012	26965,78
633,206	27234,06
633,4	27746,05
633,594	27420,42
633,788	27844,35
633,982	27975,42
634,176	27967,23
634,369	27975,42
634,563	28694,26
634,757	28294,91
634,951	28872,43
635,145	28536,57
635,339	28329,72
635,533	27830,02
635,726	28120,83
635,92	27649,8
636,114	28260,09
636,308	28288,76
636,501	28804,85
636,695	28610,29
636,889	29005,55
637,083	28253,95
637,276	28792,56
637,47	28610,29
637,664	28847,86
637,857	28534,52
638,051	28952,3
638,244	28571,38
638,438	29069,04
638,632	28479,22
638,825	28587,77
639,019	27932,42
639,212	28649,21
639,406	28559,09
639,599	28827,38
639,793	28739,32
639,986	28360,44
640,18	28270,33
640,373	28339,96
640,567	27907,84
640,76	28530,42
640,954	27985,66
641,147	28309,24
641,34	28339,96
641,534	28260,09
641,727	28337,91
641,92	28641,01
642,114	28249,85
642,307	28634,87
642,5	28684,02
642,694	28649,21
642,887	28499,7
643,08	28387,07
643,273	28024,58
643,467	28688,12
643,66	27748,1
643,853	27782,91
644,046	27664,13
644,239	28481,27
644,432	28309,24
644,626	28217,08
644,819	27729,67
645,012	27442,95
645,205	27762,44
645,398	27520,77
645,591	26988,3
645,784	26892,05
645,977	27035,41
646,17	27438,86
646,363	26928,91
646,556	26984,21
646,749	26779,41
646,942	27189
647,135	27055,89
647,328	27340,55
647,521	26730,26
647,714	26908,43
647,907	26552,09
648,099	26922,77
648,292	26533,65
648,485	26787,6
648,678	25800,48
648,871	26392,34
649,064	26023,71
649,256	26797,84
649,449	26136,35
649,642	26724,11
649,835	26820,37
650,027	26877,71
650,22	26894,1
650,413	27002,64
650,605	26201,88
650,798	26081,05
650,991	25677,6
651,183	25919,26
651,376	25802,53
651,568	26429,21
651,761	26226,46
651,954	26746,64
652,146	26787,6
652,339	26474,26
652,531	26564,37
652,724	26836,75
652,916	26601,24
653,109	26902,29
653,301	26537,75
653,494	26840,85
653,686	25743,14
653,879	26625,81
654,071	26138,4
654,263	26189,6
654,456	26050,33
654,648	26058,53
654,84	25138,99
655,033	25218,86
655,225	24006,46
655,417	23799,62
655,61	23312,2
655,802	22959,95
655,994	22550,35
656,186	23068,49
656,379	22550,35
656,571	23408,45
656,763	23627,59
656,955	24342,33
657,148	24725,3
657,34	24706,87
657,532	24614,71
657,724	24731,44
657,916	24506,16
658,108	25038,64
658,3	24504,12
658,492	25151,27
658,684	24842,03
658,876	25095,98
659,068	25562,92
659,26	25939,74
659,452	26371,86
659,644	26296,09
659,836	25653,03
660,028	26591
660,22	26029,85
660,412	26601,24
660,604	26042,14
660,796	26275,61
660,988	25995,04
661,18	26027,81
661,372	26294,04
661,563	27021,07
661,755	26451,74
661,947	27256,59
662,139	26896,14
662,331	27049,74
662,522	26267,42
662,714	26803,99
662,906	26353,43
663,097	26033,95
663,289	25866,02
663,481	25931,55
663,673	25886,5
663,864	26351,38
664,056	26058,53
664,247	26347,29
664,439	25538,34
664,631	25548,58
664,822	25505,57
665,014	25886,5
665,205	26431,26
665,397	26222,36
665,588	25583,4
665,78	25853,73
665,971	25372,46
666,163	26001,18
666,354	25579,3
666,546	25794,34
666,737	25419,56
666,929	25763,62
667,12	25677,6
667,311	25464,61
667,503	24598,32
667,694	25716,51
667,885	24950,57
668,077	25769,76
668,268	25644,84
668,459	25724,71
668,651	25298,73
668,842	25718,56
669,033	25540,39
669,224	25990,94
669,416	25823,01
669,607	25126,7
669,798	24889,13
669,989	25155,37
670,18	25272,11
670,371	25304,87
670,563	24973,1
670,754	25532,2
670,945	24749,87
671,136	25665,32
671,327	24637,23
671,518	24354,62
671,709	24432,44
671,9	25136,94
672,091	24618,8
672,282	25067,31
672,473	24747,83
672,664	25401,13
672,855	24889,13
673,046	24874,8
673,237	24889,13
673,428	24512,31
673,619	24211,26
673,809	24676,15
674	24340,28
674,191	25026,35
674,382	24080,19
674,573	24287,03
674,764	23799,62
674,954	23965,5
675,145	24196,92
675,336	24821,55
675,527	24295,22
675,717	24932,14
675,908	24176,44
676,099	24506,16
676,289	24293,18
676,48	24444,73
676,671	24055,61
676,861	24133,43
677,052	23723,84
677,243	23934,78
677,433	24094,52
677,624	24520,5
677,814	23936,83
678,005	24577,84
678,195	24409,91
678,386	24723,25
678,576	24092,48
678,767	24133,43
678,957	24051,52
679,148	24516,4
679,338	24209,21
679,529	24272,7
679,719	23873,34
679,909	24231,74
680,1	23826,24
680,29	23965,5
680,481	23797,57
680,671	24194,87
680,861	23578,43
681,052	24252,22
681,242	24059,71
681,432	24340,28
681,622	23877,44
681,813	24252,22
682,003	24244,02
682,193	24313,66
682,383	24239,93
682,573	24186,68
682,764	23670,59
682,954	23697,22
683,144	23045,96
683,334	23676,74
683,524	23209,8
683,714	23355,21
683,904	23154,51
684,094	23422,79
684,284	23232,33
684,474	24196,92
684,664	23764,8
684,854	23371,59
685,044	23160,65
685,234	22757,2
685,424	22736,72
685,614	22697,81
685,804	22314,84
685,994	21612,38
686,184	20326,26
686,374	19179,4
686,564	17231,78
686,753	15615,93
686,943	14141,39
687,133	13737,95
687,323	13172,71
687,513	14147,54
687,702	14360,53
687,892	14856,14
688,082	14714,83
688,272	15071,17
688,461	14557,13
688,651	14768,07
688,841	13932,5
689,03	14133,2
689,22	13817,82
689,41	14577,61
689,599	14206,93
689,789	15062,98
689,979	14706,63
690,168	15482,81
690,358	15355,84
690,547	16218,04
690,737	16525,23
690,926	17014,7
691,116	17004,46
691,305	17459,1
691,495	17264,55
691,684	17483,68
691,874	17858,46
692,063	18448,27
692,252	18761,61
692,442	19105,67
692,631	18718,61
692,82	19398,53
693,01	19085,19
693,199	19068,81
693,388	18730,89
693,578	19033,99
693,767	18730,89
693,956	19249,03
694,146	19171,21
694,335	19322,76
694,524	19335,04
694,713	19881,85
694,902	19414,91
695,092	19793,79
695,281	19474,31
695,47	19777,4
695,659	19562,37
695,848	19898,24
696,037	19849,08
696,226	20270,97
696,415	20354,93
696,604	20518,77
696,793	19974,01
696,982	21055,34
697,171	20557,68
697,36	20922,22
697,549	20481,91
697,738	20526,96
697,927	20338,55
698,116	21077,87
698,305	20103,03
698,494	20330,36
698,683	20424,56
698,872	19967,87
699,061	19949,43
699,25	20414,32
699,438	20029,31
699,627	20113,27
699,816	20004,73
700,005	20039,54
700,193	19902,33
700,382	20135,8
700,571	19580,8
700,76	19388,29
700,948	19662,72
701,137	19412,87
701,326	18853,77
701,514	19183,49
701,703	18925,45
701,892	19115,91
702,08	18704,27
702,269	19187,59
702,457	18890,63
702,646	19179,4
702,834	19017,61
703,023	19451,78
703,212	19916,67
703,4	19986,3
703,589	19916,67
703,777	20275,06
703,965	19634,05
704,154	20070,26
704,342	19619,71
704,531	19830,65
704,719	19132,29
704,907	19832,7
705,096	19304,32
705,284	19611,52
705,472	19027,85
705,661	19562,37
705,849	20043,64
706,037	20285,3
706,226	19724,16
706,414	20283,25
706,602	20029,31
706,79	20152,18
706,979	20426,61
707,167	20273,01
707,355	19648,38
707,543	20205,43
707,731	20445,04
707,919	20318,07
708,107	19916,67
708,296	19771,26
708,484	19644,29
708,672	19621,76
708,86	19636,1
709,048	20197,24
709,236	19978,11
709,424	19568,51
709,612	19246,98
709,8	19457,92
709,988	19335,04
710,176	19756,93
710,364	19289,99
710,551	19310,47
710,739	19322,76
710,927	20019,07
711,115	19636,1
711,303	19324,8
711,491	18859,91
711,679	18919,31
711,866	18685,84
712,054	19388,29
712,242	18939,79
712,43	19713,92
712,617	19054,47
712,805	19222,41
712,993	19044,23
713,181	18978,7
713,368	18448,27
713,556	19160,97
713,744	18343,83
713,931	19218,31
714,119	18626,45
714,306	18456,47
714,494	18593,68
714,682	18513,81
714,869	18065,3
715,057	18569,1
715,244	17846,17
715,432	18286,48
715,619	17711
715,807	18227,09
715,994	17891,23
716,182	17616,8
716,369	16998,31
716,556	16672,68
716,744	15685,56
716,931	15570,88
717,119	14813,13
717,306	15054,79
717,493	14278,61
717,681	14161,87
717,868	13594,59
718,055	13295,58
718,242	12732,39
718,43	13029,35
718,617	12453,87
718,804	12337,13
718,991	11835,38
719,179	12263,41
719,366	11857,91
719,553	12298,22
719,74	11616,25
719,927	12068,85
720,114	11724,79
720,301	12195,82
720,488	11921,4
720,676	12689,39
720,863	12818,41
721,05	13123,55
721,237	13322,21
721,424	14251,99
721,611	14307,28
721,798	14673,87
721,985	14174,16
722,172	14559,18
722,358	14569,42
722,545	14976,97
722,732	14206,93
722,919	14227,41
723,106	13459,42
723,293	13830,1
723,48	13510,62
723,667	13385,69
723,853	12818,41
724,04	13479,9
724,227	13150,18
724,414	13412,32
724,6	12828,65
724,787	13043,68
724,974	12961,76
725,161	13062,12
725,347	12691,43
725,534	12957,67
725,72	12615,66
725,907	13146,08
726,094	13025,25
726,28	13039,59
726,467	12271,6
726,653	12754,92
726,84	12566,51
727,027	12791,78
727,213	12507,12
727,4	12539,88
727,586	12212,21
727,773	12402,67
727,959	12419,05
728,145	12773,35
728,332	12316,65
728,518	12568,55
728,705	12748,78
728,891	12703,72
729,077	12642,28
729,264	12462,06
729,45	12396,53
729,636	13041,64
729,823	12621,8
730,009	12736,49
730,195	12754,92
730,382	13086,69
730,568	12709,86
730,754	12394,48
730,94	12402,67
731,126	12859,37
731,313	12173,3
731,499	13219,81
731,685	13051,88
731,871	13092,83
732,057	13049,83
732,243	13273,06
732,429	13150,18
732,615	13555,68
732,801	13582,3
732,987	13885,4
733,173	13594,59
733,359	14348,24
733,545	14071,76
733,731	14084,05
733,917	14108,63
734,103	14534,6
734,289	14229,46
734,475	14657,48
734,661	14477,26
734,847	14389,2
735,033	14356,43
735,219	14381,01
735,404	14186,45
735,59	14317,52
735,776	14434,25
735,962	14784,46
736,148	14460,88
736,333	14274,51
736,519	13834,2
736,705	14237,65
736,89	13926,36
737,076	14157,78
737,262	14049,24
737,447	14880,71
737,633	14598,09
737,819	14903,24
738,004	14387,15
738,19	14458,83
738,375	13957,08
738,561	13936,6
738,747	13893,59
738,932	13758,42
739,118	13709,27
739,303	13967,32
739,489	13643,74
739,674	14096,34
739,859	14274,51
740,045	14319,57
740,23	14032,85
740,416	13981,65
740,601	14172,11
740,786	13799,38
740,972	13447,13
741,157	13971,41
741,342	13344,74
741,528	13807,58
741,713	13443,04
741,898	14065,62
742,084	13918,17
742,269	14143,44
742,454	13885,4
742,639	14198,74
742,824	13823,96
743,01	14243,79
743,195	14286,8
743,38	14503,89
743,565	14174,16
743,75	14090,2
743,935	13852,63
744,12	14434,25
744,305	13783
744,49	13750,23
744,675	13635,55
744,86	13758,42
745,045	13758,42
745,23	13711,32
745,415	13481,95
745,6	13752,28
745,785	13393,89
745,97	13823,96
746,155	13443,04
746,34	13725,66
746,525	13649,88
746,71	14235,6
746,895	13383,65
747,079	13846,49
747,264	13412,32
747,449	13449,18
747,634	13467,61
747,819	13490,14
748,003	12910,57
748,188	13058,02
748,373	12867,56
748,557	12795,88
748,742	12703,72
748,927	13228
749,111	13103,07
749,296	13060,07
749,481	12867,56
749,665	12681,19
749,85	12734,44
750,034	12863,46
750,219	12679,15
750,404	13213,67
750,588	12617,71
750,773	12773,35
750,957	12525,55
751,141	12898,28
751,326	12574,7
751,51	12836,84
751,695	12656,62
751,879	12685,29
752,064	12320,75
752,248	12814,31
752,432	12040,18
752,617	12109,81
752,801	12204,02
752,985	12421,1
753,17	12072,95
753,354	12210,16
753,538	12498,92
753,722	12392,43
753,907	12386,29
754,091	12396,53
754,275	11925,49
754,459	12576,75
754,643	11995,12
754,828	12404,72
755,012	11892,73
755,196	11843,57
755,38	11444,22
755,564	11978,74
755,748	11995,12
755,932	12267,5
756,116	11513,85
756,3	12115,95
756,484	11718,65
756,668	12042,23
756,852	11579,39
757,036	11669,5
757,22	11624,44
757,404	11628,54
757,588	11290,62
757,772	11933,68
757,956	11442,17
758,14	11403,26
758,323	11110,4
758,507	11472,89
758,691	11270,14
758,875	10825,73
759,059	9941,01
759,242	9332,76
759,426	8226,86
759,61	7321,66
759,794	5773,39
759,977	4348,01
760,161	2846,85
760,345	2021,52
760,528	1083,55
760,712	862,37
760,895	475,3
761,079	391,33
761,263	348,33
761,446	309,41
761,63	407,72
761,813	499,88
761,997	489,64
762,18	495,78
762,364	549,03
762,547	499,88
762,731	333,99
762,914	141,48
763,098	139,43
763,281	131,24
763,464	157,86
763,648	178,34
763,831	161,96
764,015	213,16
764,198	225,45
764,381	274,6
764,564	340,13
764,748	501,92
764,931	589,99
765,114	934,04
765,297	985,24
765,481	1515,67
765,664	1886,35
765,847	2431,11
766,03	2621,57
766,213	3416,18
766,397	3682,42
766,58	4296,81
766,763	4395,11
766,946	5267,55
767,129	5752,91
767,312	6875,2
767,495	7188,54
767,678	7946,29
767,861	8237,1
768,044	8673,32
768,227	8966,18
768,41	9240,61
768,593	9373,72
768,776	9635,86
768,959	9822,23
769,142	10471,43
769,324	10070,03
769,507	10510,35
769,69	10543,11
769,873	10729,48
770,056	10674,18
770,239	10962,95
770,421	10983,43
770,604	11843,57
770,787	11388,92
770,97	11552,76
771,152	11300,86
771,335	11974,64
771,518	11886,58
771,7	12263,41
771,883	11706,36
772,066	12279,79
772,248	12079,09
772,431	12675,05
772,613	12363,76
772,796	12414,96
772,978	12568,55
773,161	12910,57
773,343	12615,66
773,526	12603,37
773,708	12267,5
773,891	12541,93
774,073	12425,2
774,256	12773,35
774,438	12498,92
774,621	12449,77
774,803	12374
774,985	12693,48
775,168	12484,59
775,35	12929
775,532	12906,47
775,715	13141,99
775,897	12511,21
776,079	12795,88
776,261	12767,21
776,444	12974,05
776,626	12724,2
776,808	12855,27
776,99	12681,19
777,173	12697,58
777,355	12222,45
777,537	13070,31
777,719	12662,76
777,901	12554,22
778,083	12230,64
778,265	12290,03
778,447	12011,51
778,629	12347,37
778,811	12193,78
778,993	12578,79
779,175	12244,98
779,357	12666,86
779,539	12337,13
779,721	12486,64
779,903	12339,18
780,085	12584,94
780,267	11870,2
780,449	12146,67
780,631	11816,95
780,812	12167,15
780,994	11962,36
781,176	12142,58
781,358	12152,82
781,54	12048,37
781,721	11939,83
781,903	12066,8
782,085	11503,61
782,267	11853,81
782,448	11257,85
782,63	11694,07
782,812	11325,44
782,993	11646,97
783,175	11509,76
783,357	11507,71
783,538	11388,92
783,72	11528,19
783,901	10987,52
784,083	10883,08
784,264	10754,05
784,446	11063,3
784,627	11014,15
784,809	11210,75
784,99	11290,62
785,172	11161,6
785,353	10876,93
785,535	10874,88
785,716	10878,98
785,897	11059,2
786,079	10704,9
786,26	10876,93
786,441	10758,15
786,623	10919,94
786,804	10317,84
786,985	10483,72
787,167	10383,37
787,348	10348,56
787,529	10164,24
787,71	10647,56
787,891	10328,08
788,073	10295,31
788,254	9900,05
788,435	9695,25
788,616	9607,19
788,797	9904,15
788,978	9816,08
789,159	9762,84
789,34	9330,72
789,522	9469,98
789,703	9156,64
789,884	9459,74
790,065	9166,88
790,246	9496,6
790,427	9160,73
790,607	9304,09
790,788	9271,33
790,969	9293,85
791,15	9041,95
791,331	8878,12
791,512	8503,34
791,693	8749,09
791,874	8792,1
792,054	9154,59
792,235	8859,68
792,416	8953,89
792,597	8495,15
792,778	8603,69
792,958	8460,33
793,139	8452,14
793,32	8329,26
793,5	8589,35
793,681	8206,38
793,862	8577,06
794,042	8181,81
794,223	8456,23
794,404	8357,93
794,584	8445,99
794,765	8007,73
794,945	8300,59
795,126	8075,31
795,306	8128,56
795,487	7958,58
795,667	8149,04
795,848	8097,84
796,028	8063,02
796,209	8013,87
796,389	8335,4
796,57	7860,27
796,75	7972,91
796,93	7968,82
797,111	7866,42
797,291	7698,49
797,471	7905,33
797,652	7645,24
797,832	7983,15
798,012	7841,84
798,192	8103,98
798,373	7911,47
798,553	8075,31
798,733	7604,28
798,913	7927,86
799,093	7624,76
799,274	7905,33
799,454	7323,71
799,634	7774,26
799,814	7524,41
799,994	7446,59
800,174	7213,12
800,354	7618,61
800,534	7362,62
800,714	7606,33
800,894	7419,96
801,074	7444,54
801,254	7008,32
801,434	7335,99
801,614	6989,89
801,794	7215,16
801,974	7178,3
802,154	7221,31
802,334	7061,57
802,514	7426,11
802,693	7108,67
802,873	7000,13
803,053	6973,5
803,233	6926,4
803,413	6477,9
803,592	6692,93
803,772	6455,37
803,952	6819,91
804,131	6643,78
804,311	6824
804,491	6490,18
804,67	6713,41
804,85	6486,09
805,03	6920,26
805,209	6527,05
805,389	6494,28
805,568	6391,88
805,748	6744,13
805,928	6850,63
806,107	7026,75
806,287	6436,94
806,466	6510,66
806,646	6535,24
806,825	6690,88
807,004	6537,29
807,184	6563,91
807,363	6355,02
807,543	6565,96
807,722	6256,72
807,901	6643,78
808,081	6416,46
808,26	6479,94
808,439	5959,76
808,619	6256,72
808,798	5701,72
808,977	6146,12
809,156	5970
809,336	6082,64
809,515	5924,94
809,694	5822,55
809,873	5644,37
810,052	6000,72
810,231	5595,22
810,411	5718,1
810,59	5474,39
810,769	5746,77
810,948	5564,5
811,127	5603,41
811,306	5441,62
811,485	5365,85
811,664	5285,98
811,843	5390,42
812,022	5177,44
812,201	5331,03
812,38	5525,59
812,559	5550,17
812,737	5328,99
812,916	5433,43
813,095	4956,26
813,274	5136,48
813,453	4882,53
813,632	5040,22
813,811	4391,02
813,989	4474,98
814,168	4216,94
814,347	4550,76
814,526	4049
814,704	4302,95
814,883	4120,68
815,062	4440,17
815,24	3895,41
815,419	3776,63
815,598	3438,71
815,776	3623,03
815,955	3399,8
816,133	3577,97
816,312	3301,5
816,49	3401,85
816,669	2873,47
816,847	3192,95
817,026	2705,54
817,204	2877,57
817,383	2928,77
817,561	3041,4
817,74	2918,53
817,918	3090,56
818,097	2930,81
818,275	3160,19
818,453	2656,39
818,632	2910,33
818,81	2687,11
818,988	2736,26
819,167	2666,63
819,345	2996,35
819,523	2877,57
819,701	2920,57
819,879	2859,14
820,058	2906,24
820,236	2703,49
820,414	2934,91
820,592	2990,21
820,77	3278,97
820,948	3162,23
821,127	3393,65
821,305	3428,47
821,483	3659,89
821,661	3541,11
821,839	3700,85
822,017	3356,79
822,195	3565,68
822,373	3457,14
822,551	3600,5
822,729	3192,95
822,907	2965,63
823,085	2412,68
823,262	2332,81
823,44	2146,44
823,618	2138,25
823,796	1898,64
823,974	2144,39
824,152	2216,07
824,329	2513,03
824,507	2541,7
824,685	3014,78
824,863	2959,49
825,04	3125,37
825,218	3020,92
825,396	3195
825,574	3057,79
825,751	3238,01
825,929	3156,09
826,107	3113,08
826,284	3074,17
826,462	3102,84
826,639	3045,5
826,817	3041,4
826,994	3016,83
827,172	3262,58
827,349	3149,95
827,527	3264,63
827,704	2809,98
827,882	2957,44
828,059	2748,54
828,237	2875,52
828,414	2439,3
828,591	2666,63
828,769	2353,29
828,946	2576,52
829,124	2197,64
829,301	2496,64
829,478	2463,88
829,655	2726,02
829,833	2506,88
830,01	2680,96
830,187	2513,03
830,364	2521,22
830,542	2367,62
830,719	2574,47
830,896	2455,69
831,073	2584,71
831,25	2533,51
831,427	2783,36
831,604	2451,59
831,782	2773,12
831,959	2543,75
832,136	2537,6
832,313	2388,1
832,49	2619,52
832,667	2158,73
832,844	2316,42
833,021	2322,57
833,198	2310,28
833,374	2238,6
833,551	2304,14
833,728	2203,79
833,905	2334,86
834,082	2312,33
834,259	2644,1
834,436	2336,9
834,612	2621,57
834,789	2427,01
834,966	2775,17
835,143	2318,47
835,319	2855,04
835,496	2492,55
835,673	2701,44
835,85	2371,72
836,026	2580,61
836,203	2349,19
836,38	2631,81
836,556	2277,51
836,733	2560,13
836,909	2402,44
837,086	2402,44
837,262	2341
837,439	2345,09
837,616	2275,46
837,792	2359,43
837,968	2449,54
838,145	2549,89
838,321	2384,01
838,498	2437,25
838,674	2326,66
838,851	2216,07
839,027	2226,31
839,203	2392,2
839,38	2275,46
839,556	2326,66
839,732	2273,42
839,909	2580,61
840,085	2320,52
840,261	2336,9
840,437	2314,38
840,614	2361,48
840,79	2070,67
840,966	2277,51
841,142	2328,71
841,318	2760,83
841,494	2451,59
841,671	2572,42
841,847	2232,46
842,023	2357,38
842,199	2283,66
842,375	2236,55
842,551	2185,35
842,727	2207,88
842,903	2312,33
843,079	2175,11
843,255	2128,01
843,431	2089,1
843,607	1931,41
843,783	2103,43
843,959	2140,3
844,134	2154,63
844,31	1960,08
844,486	2082,95
844,662	2035,85
844,838	2025,61
845,013	1757,33
845,189	1929,36
845,365	1919,12
845,541	1951,88
845,716	1786
845,892	1992,84
846,068	2025,61
846,244	2152,59
846,419	2007,18
846,595	1673,36
846,77	1613,97
846,946	1837,2
847,122	1710,22
847,297	1839,25
847,473	1790,1
847,648	2033,8
847,824	1896,59
847,999	1935,5
848,175	1853,58
848,35	1865,87
848,526	1517,72
848,701	1714,32
848,876	1507,48
849,052	1732,75
849,227	1628,31
849,403	1699,98
849,578	1579,15
849,753	1628,31
849,929	1575,06
850,104	1671,31
850,279	1337,49
850,454	1403,03
850,63	1132,7
850,805	1292,44
850,98	1140,89
851,155	1206,42
851,33	1120,41
851,505	1454,23
851,681	1292,44
851,856	1341,59
852,031	1276,06
852,206	1362,07
852,381	1257,62
852,556	1480,85
852,731	1310,87
852,906	1427,6
853,081	1421,46
853,256	1523,86
853,431	1405,08
853,606	1517,72
853,781	1274,01
853,956	1349,78
854,131	1026,2
854,305	1009,82
854,48	925,85
854,655	1026,2
854,83	676
855,005	682,14
855,18	645,28
855,354	678,05
855,529	676
855,704	899,23
855,879	927,9
856,053	1040,54
856,228	954,52
856,403	1036,44
856,577	1044,63
856,752	1034,39
856,926	1032,35
857,101	1126,55
857,276	1120,41
857,45	1149,08
857,625	997,53
857,799	1048,73
857,974	1011,87
858,148	1089,69
858,323	893,09
858,497	1044,63
858,672	913,56
858,846	925,85
859,02	901,28
859,195	981,15
859,369	833,69
859,543	1026,2
859,718	868,51
859,892	1024,16
860,066	764,06
860,241	755,87
860,415	786,59
860,589	741,54
860,763	680,1
860,938	796,83
861,112	759,97
861,286	815,26
861,46	911,52
861,634	772,25
861,808	829,6
861,982	743,58
862,157	606,37
862,331	721,06
862,505	725,15
862,679	641,18
862,853	698,53
863,027	845,98
863,201	600,23
863,375	884,89
863,549	690,34
863,722	833,69
863,896	678,05
864,07	741,54
864,244	684,19
864,418	749,73
864,592	637,09
864,766	645,28
864,939	534,69
865,113	649,38
865,287	583,84
865,461	665,76
865,634	489,64
865,808	624,8
865,982	551,07
866,156	503,97
866,329	540,83
866,503	618,66
866,676	581,79
866,85	438,44
867,024	333,99
867,197	436,39
867,371	415,91
867,544	278,69
867,718	368,81
867,891	403,62
868,065	391,33
868,238	563,36
868,412	399,52
868,585	417,96
868,759	434,34
868,932	522,4
869,105	546,98
869,279	501,92
869,452	413,86
869,625	434,34
869,799	473,25
869,972	444,58
870,145	452,77
870,319	522,4
870,492	463,01
870,665	499,88
870,838	420
871,011	467,11
871,185	460,96
871,358	512,16
871,531	405,67
871,704	422,05
871,877	407,72
872,05	401,57
872,223	336,04
872,396	377
872,569	319,65
872,742	379,04
872,915	413,86
873,088	364,71
873,261	333,99
873,434	348,33
873,607	315,56
873,78	295,08
873,953	327,85
874,126	313,51
874,299	215,21
874,471	301,22
874,644	245,93
874,817	290,98
874,99	374,95
875,163	293,03
875,335	239,78
875,508	215,21
875,681	231,59
875,853	284,84
876,026	319,65
876,199	262,31
876,371	274,6
876,544	250,02
876,717	256,17
876,889	383,14
877,062	258,21
877,234	223,4
877,407	282,79
877,579	381,09
877,752	229,54
877,924	252,07
878,097	278,69
878,269	221,35
878,442	235,69
878,614	182,44
878,786	305,32
878,959	219,3
879,131	209,06
879,303	233,64
879,476	282,79
879,648	254,12
879,82	202,92
879,993	204,97
880,165	143,53
880,337	149,67
880,509	272,55
880,681	190,63
880,854	182,44
881,026	164,01
881,198	209,06
881,37	149,67
881,542	174,25
881,714	116,9
881,886	196,78
882,058	192,68
882,23	141,48
882,402	159,91
882,574	196,78
882,746	153,77
882,918	176,3
883,09	135,34
883,262	198,82
883,434	147,62
883,606	135,34
883,778	188,58
883,95	194,73
884,122	295,08
884,293	118,95
884,465	166,06
884,637	149,67
884,809	92,33
884,98	135,34
885,152	137,38
885,324	98,47
885,496	137,38
885,667	151,72
885,839	241,83
886,011	71,85
886,182	123,05
886,354	141,48
886,525	114,86
886,697	178,34
886,869	63,66
887,04	176,3
887,212	168,1
887,383	123,05
887,555	170,15
887,726	157,86
887,897	143,53
888,069	102,57
888,24	104,62
888,412	92,33
888,583	125,1
888,754	82,09
888,926	47,27
889,097	94,38
889,268	73,9
889,44	77,99
889,611	73,9
889,782	104,62
889,953	125,1
890,125	141,48
890,296	94,38
890,467	137,38
890,638	86,19
890,809	147,62
890,98	96,43
891,151	96,43
891,323	135,34
891,494	71,85
891,665	139,43
891,836	77,99
892,007	137,38
892,178	114,86
892,349	26,79
892,52	82,09
892,691	77,99
892,862	53,42
893,032	92,33
893,203	59,56
893,374	53,42
893,545	106,67
893,716	137,38
893,887	59,56
894,057	84,14
894,228	61,61
894,399	90,28
894,57	108,71
894,74	67,75
894,911	127,14
895,082	63,66
895,253	71,85
895,423	-8,02
895,594	80,04
895,764	65,71
895,935	90,28
896,106	112,81
896,276	69,8
896,447	30,89
896,617	18,6
896,788	75,95
896,958	26,79
897,129	-18,26
897,299	26,79
897,47	67,75
897,64	59,56
897,81	49,32
897,981	92,33
898,151	51,37
898,322	-3,93
898,492	75,95
898,662	133,29
898,832	24,75
899,003	59,56
899,173	-46,93
899,343	71,85
899,513	41,13
