Data from sun_USB4F104151__5__16-40-08-374.txt Node

Date: Thu Mar 07 16:40:08 EST 2024
User: lauri
Spectrometer: USB4F10415
Trigger mode: 4
Integration Time (sec): 2,000000E-3
Scans to average: 1
Electric dark correction enabled: true
Nonlinearity correction enabled: false
Boxcar width: 0
XAxis mode: Wavelengths
Number of Pixels in Spectrum: 3648
>>>>>Begin Spectral Data<<<<<
178,204	109,57
178,424	109,57
178,644	109,57
178,864	9,22
179,084	-11,26
179,304	-35,84
179,524	25,6
179,744	27,65
179,964	1,02
180,184	-25,6
180,404	3,07
180,624	-29,7
180,844	15,36
181,064	-13,31
181,283	7,17
181,503	39,94
181,723	-15,36
181,943	68,61
182,163	-17,41
182,383	29,7
182,602	56,32
182,822	17,41
183,042	64,51
183,262	-7,17
183,482	-3,07
183,701	60,42
183,921	-7,17
184,141	50,18
184,361	35,84
184,58	-33,79
184,8	15,36
185,02	62,46
185,239	46,08
185,459	-78,85
185,679	-7,17
185,898	-31,74
186,118	37,89
186,338	68,61
186,557	46,08
186,777	107,52
186,997	50,18
187,216	27,65
187,436	29,7
187,655	-46,08
187,875	3,07
188,095	44,03
188,314	-3,07
188,534	41,98
188,753	44,03
188,973	58,37
189,192	68,61
189,412	19,46
189,631	9,22
189,851	21,5
190,07	46,08
190,29	3,07
190,509	23,55
190,729	74,75
190,948	7,17
191,168	13,31
191,387	21,5
191,607	48,13
191,826	64,51
192,045	31,74
192,265	29,7
192,484	39,94
192,704	-7,17
192,923	13,31
193,142	-33,79
193,362	17,41
193,581	23,55
193,8	41,98
194,02	9,22
194,239	25,6
194,458	-39,94
194,678	29,7
194,897	41,98
195,116	27,65
195,335	5,12
195,555	-15,36
195,774	-21,5
195,993	44,03
196,212	31,74
196,432	11,26
196,651	-5,12
196,87	-25,6
197,089	58,37
197,308	44,03
197,528	13,31
197,747	-37,89
197,966	-11,26
198,185	13,31
198,404	25,6
198,623	52,22
198,842	52,22
199,062	41,98
199,281	-5,12
199,5	-15,36
199,719	54,27
199,938	74,75
200,157	-3,07
200,376	-46,08
200,595	-19,46
200,814	44,03
201,033	25,6
201,252	52,22
201,471	33,79
201,69	-11,26
201,909	25,6
202,128	101,37
202,347	52,22
202,566	66,56
202,785	31,74
203,004	-1,02
203,223	3,07
203,442	39,94
203,661	-15,36
203,879	58,37
204,098	-3,07
204,317	1,02
204,536	-25,6
204,755	70,65
204,974	-48,13
205,193	58,37
205,411	-35,84
205,63	21,5
205,849	13,31
206,068	54,27
206,287	1,02
206,505	9,22
206,724	33,79
206,943	21,5
207,162	-60,42
207,381	7,17
207,599	-31,74
207,818	-11,26
208,037	-21,5
208,255	-3,07
208,474	-1,02
208,693	25,6
208,911	46,08
209,13	-25,6
209,349	66,56
209,567	-9,22
209,786	13,31
210,005	41,98
210,223	99,33
210,442	9,22
210,661	70,65
210,879	-3,07
211,098	37,89
211,316	52,22
211,535	37,89
211,753	15,36
211,972	-17,41
212,191	-1,02
212,409	17,41
212,628	15,36
212,846	-19,46
213,065	54,27
213,283	35,84
213,502	13,31
213,72	52,22
213,938	54,27
214,157	58,37
214,375	-25,6
214,594	-9,22
214,812	31,74
215,031	3,07
215,249	37,89
215,467	56,32
215,686	-33,79
215,904	46,08
216,122	13,31
216,341	-27,65
216,559	-7,17
216,778	27,65
216,996	19,46
217,214	3,07
217,432	48,13
217,651	113,66
217,869	52,22
218,087	15,36
218,306	-5,12
218,524	-17,41
218,742	54,27
218,96	31,74
219,179	13,31
219,397	-5,12
219,615	1,02
219,833	-29,7
220,051	-31,74
220,27	117,76
220,488	35,84
220,706	-1,02
220,924	52,22
221,142	1,02
221,36	21,5
221,578	-9,22
221,796	54,27
222,015	54,27
222,233	58,37
222,451	15,36
222,669	-21,5
222,887	74,75
223,105	27,65
223,323	46,08
223,541	33,79
223,759	3,07
223,977	11,26
224,195	56,32
224,413	17,41
224,631	3,07
224,849	54,27
225,067	-35,84
225,285	62,46
225,503	72,7
225,721	44,03
225,939	11,26
226,157	39,94
226,375	84,99
226,592	21,5
226,81	109,57
227,028	1,02
227,246	5,12
227,464	80,89
227,682	23,55
227,9	11,26
228,117	19,46
228,335	1,02
228,553	37,89
228,771	9,22
228,989	91,13
229,206	21,5
229,424	9,22
229,642	31,74
229,86	25,6
230,077	15,36
230,295	-11,26
230,513	19,46
230,731	21,5
230,948	44,03
231,166	33,79
231,384	-3,07
231,601	19,46
231,819	-9,22
232,037	-1,02
232,254	-39,94
232,472	-33,79
232,689	70,65
232,907	5,12
233,125	-21,5
233,342	39,94
233,56	-19,46
233,777	60,42
233,995	-52,22
234,213	-5,12
234,43	39,94
234,648	-39,94
234,865	-64,51
235,083	-62,46
235,3	68,61
235,518	-11,26
235,735	44,03
235,953	52,22
236,17	48,13
236,388	46,08
236,605	31,74
236,822	84,99
237,04	58,37
237,257	68,61
237,475	23,55
237,692	21,5
237,909	7,17
238,127	35,84
238,344	-1,02
238,562	76,8
238,779	66,56
238,996	35,84
239,214	70,65
239,431	64,51
239,648	-21,5
239,865	5,12
240,083	15,36
240,3	46,08
240,517	29,7
240,735	-1,02
240,952	25,6
241,169	27,65
241,386	54,27
241,603	7,17
241,821	-39,94
242,038	29,7
242,255	3,07
242,472	19,46
242,689	5,12
242,907	-13,31
243,124	35,84
243,341	-11,26
243,558	29,7
243,775	21,5
243,992	27,65
244,209	29,7
244,426	78,85
244,643	37,89
244,86	21,5
245,078	29,7
245,295	-21,5
245,512	33,79
245,729	70,65
245,946	-1,02
246,163	17,41
246,38	17,41
246,597	-3,07
246,814	95,23
247,031	-21,5
247,248	41,98
247,464	37,89
247,681	3,07
247,898	5,12
248,115	-1,02
248,332	9,22
248,549	-56,32
248,766	-3,07
248,983	44,03
249,2	97,28
249,417	-21,5
249,633	-9,22
249,85	29,7
250,067	23,55
250,284	7,17
250,501	107,52
250,717	48,13
250,934	1,02
251,151	-25,6
251,368	-3,07
251,585	13,31
251,801	11,26
252,018	13,31
252,235	29,7
252,451	44,03
252,668	15,36
252,885	13,31
253,102	50,18
253,318	27,65
253,535	58,37
253,752	-11,26
253,968	7,17
254,185	-44,03
254,401	-54,27
254,618	11,26
254,835	-9,22
255,051	37,89
255,268	-19,46
255,484	84,99
255,701	-17,41
255,917	5,12
256,134	-21,5
256,351	62,46
256,567	-1,02
256,784	-44,03
257	31,74
257,217	44,03
257,433	-11,26
257,65	46,08
257,866	52,22
258,082	52,22
258,299	70,65
258,515	52,22
258,732	-29,7
258,948	-25,6
259,165	-35,84
259,381	9,22
259,597	-27,65
259,814	-9,22
260,03	1,02
260,246	89,09
260,463	60,42
260,679	50,18
260,895	17,41
261,112	-37,89
261,328	23,55
261,544	60,42
261,761	-11,26
261,977	11,26
262,193	-19,46
262,409	72,7
262,626	-13,31
262,842	74,75
263,058	-52,22
263,274	64,51
263,49	52,22
263,707	29,7
263,923	3,07
264,139	7,17
264,355	-3,07
264,571	-33,79
264,787	64,51
265,004	-1,02
265,22	-33,79
265,436	33,79
265,652	54,27
265,868	84,99
266,084	-3,07
266,3	-33,79
266,516	50,18
266,732	54,27
266,948	48,13
267,164	64,51
267,38	50,18
267,596	-31,74
267,812	3,07
268,028	46,08
268,244	35,84
268,46	3,07
268,676	80,89
268,892	41,98
269,108	140,29
269,324	-39,94
269,54	39,94
269,756	-11,26
269,972	11,26
270,188	41,98
270,403	74,75
270,619	37,89
270,835	13,31
271,051	1,02
271,267	13,31
271,483	25,6
271,698	-56,32
271,914	80,89
272,13	1,02
272,346	-27,65
272,562	-48,13
272,777	-41,98
272,993	-48,13
273,209	68,61
273,425	17,41
273,64	11,26
273,856	-35,84
274,072	84,99
274,287	-3,07
274,503	37,89
274,719	3,07
274,934	66,56
275,15	7,17
275,366	31,74
275,581	25,6
275,797	103,42
276,012	58,37
276,228	48,13
276,444	-7,17
276,659	13,31
276,875	39,94
277,09	-9,22
277,306	-11,26
277,521	35,84
277,737	15,36
277,952	21,5
278,168	33,79
278,383	-41,98
278,599	-17,41
278,814	66,56
279,03	37,89
279,245	-56,32
279,461	-44,03
279,676	1,02
279,892	-56,32
280,107	-13,31
280,322	27,65
280,538	-27,65
280,753	91,13
280,969	27,65
281,184	-19,46
281,399	64,51
281,615	29,7
281,83	46,08
282,045	21,5
282,26	84,99
282,476	35,84
282,691	-54,27
282,906	-19,46
283,122	80,89
283,337	21,5
283,552	62,46
283,767	-25,6
283,983	48,13
284,198	29,7
284,413	74,75
284,628	1,02
284,843	64,51
285,058	7,17
285,274	56,32
285,489	1,02
285,704	17,41
285,919	-3,07
286,134	-21,5
286,349	44,03
286,564	82,94
286,779	-15,36
286,995	15,36
287,21	-7,17
287,425	3,07
287,64	29,7
287,855	60,42
288,07	3,07
288,285	-29,7
288,5	1,02
288,715	-21,5
288,93	5,12
289,145	89,09
289,36	50,18
289,575	35,84
289,79	-37,89
290,004	44,03
290,219	9,22
290,434	-35,84
290,649	52,22
290,864	-9,22
291,079	7,17
291,294	60,42
291,509	68,61
291,724	44,03
291,938	-84,99
292,153	-52,22
292,368	-11,26
292,583	-29,7
292,798	-44,03
293,012	15,36
293,227	66,56
293,442	29,7
293,657	33,79
293,871	27,65
294,086	35,84
294,301	3,07
294,516	27,65
294,73	97,28
294,945	-3,07
295,16	11,26
295,374	41,98
295,589	-13,31
295,804	48,13
296,018	121,85
296,233	-35,84
296,447	-33,79
296,662	-84,99
296,877	101,37
297,091	23,55
297,306	-68,61
297,52	-56,32
297,735	3,07
297,949	17,41
298,164	37,89
298,378	5,12
298,593	48,13
298,807	-1,02
299,022	23,55
299,236	11,26
299,451	37,89
299,665	31,74
299,88	-11,26
300,094	15,36
300,309	9,22
300,523	9,22
300,737	44,03
300,952	7,17
301,166	72,7
301,381	-3,07
301,595	27,65
301,809	-27,65
302,024	-41,98
302,238	5,12
302,452	-33,79
302,667	9,22
302,881	7,17
303,095	58,37
303,309	5,12
303,524	29,7
303,738	-23,55
303,952	37,89
304,166	39,94
304,381	39,94
304,595	-13,31
304,809	-11,26
305,023	66,56
305,237	82,94
305,452	27,65
305,666	50,18
305,88	5,12
306,094	5,12
306,308	39,94
306,522	19,46
306,736	46,08
306,95	46,08
307,164	5,12
307,379	87,04
307,593	39,94
307,807	27,65
308,021	-23,55
308,235	31,74
308,449	76,8
308,663	5,12
308,877	35,84
309,091	68,61
309,305	54,27
309,519	91,13
309,733	23,55
309,947	15,36
310,161	48,13
310,374	54,27
310,588	54,27
310,802	-1,02
311,016	50,18
311,23	-52,22
311,444	-27,65
311,658	62,46
311,872	89,09
312,085	25,6
312,299	5,12
312,513	93,18
312,727	-15,36
312,941	-5,12
313,154	29,7
313,368	-19,46
313,582	144,38
313,796	33,79
314,009	48,13
314,223	68,61
314,437	-23,55
314,651	60,42
314,864	-19,46
315,078	-5,12
315,292	44,03
315,505	29,7
315,719	48,13
315,933	78,85
316,146	93,18
316,36	29,7
316,573	44,03
316,787	33,79
317,001	31,74
317,214	-19,46
317,428	1,02
317,641	27,65
317,855	11,26
318,068	50,18
318,282	35,84
318,495	21,5
318,709	74,75
318,922	-11,26
319,136	58,37
319,349	-5,12
319,563	-1,02
319,776	-5,12
319,99	70,65
320,203	23,55
320,417	11,26
320,63	60,42
320,843	11,26
321,057	15,36
321,27	39,94
321,483	-17,41
321,697	-7,17
321,91	-29,7
322,124	50,18
322,337	9,22
322,55	27,65
322,763	76,8
322,977	-27,65
323,19	13,31
323,403	-7,17
323,617	117,76
323,83	25,6
324,043	54,27
324,256	46,08
324,469	23,55
324,683	84,99
324,896	37,89
325,109	54,27
325,322	15,36
325,535	-13,31
325,748	-29,7
325,962	-7,17
326,175	21,5
326,388	15,36
326,601	41,98
326,814	-29,7
327,027	103,42
327,24	44,03
327,453	13,31
327,666	78,85
327,879	48,13
328,092	7,17
328,305	66,56
328,518	-21,5
328,731	-1,02
328,944	-11,26
329,157	80,89
329,37	9,22
329,583	21,5
329,796	-17,41
330,009	11,26
330,222	9,22
330,435	52,22
330,648	31,74
330,861	-41,98
331,073	19,46
331,286	3,07
331,499	-68,61
331,712	-11,26
331,925	21,5
332,138	64,51
332,35	-19,46
332,563	52,22
332,776	37,89
332,989	-1,02
333,202	-11,26
333,414	-13,31
333,627	91,13
333,84	70,65
334,053	13,31
334,265	13,31
334,478	13,31
334,691	15,36
334,903	19,46
335,116	21,5
335,329	39,94
335,541	31,74
335,754	70,65
335,966	-1,02
336,179	1,02
336,392	56,32
336,604	62,46
336,817	19,46
337,029	11,26
337,242	19,46
337,454	-3,07
337,667	21,5
337,88	62,46
338,092	39,94
338,305	76,8
338,517	-11,26
338,729	39,94
338,942	128
339,154	78,85
339,367	7,17
339,579	1,02
339,792	68,61
340,004	15,36
340,217	56,32
340,429	-15,36
340,641	-17,41
340,854	-60,42
341,066	37,89
341,278	11,26
341,491	31,74
341,703	46,08
341,915	9,22
342,128	25,6
342,34	3,07
342,552	46,08
342,764	56,32
342,977	13,31
343,189	-5,12
343,401	-50,18
343,613	15,36
343,826	-50,18
344,038	5,12
344,25	-23,55
344,462	52,22
344,674	66,56
344,886	-48,13
345,099	-54,27
345,311	3,07
345,523	19,46
345,735	148,48
345,947	-9,22
346,159	29,7
346,371	54,27
346,583	9,22
346,795	48,13
347,007	-3,07
347,219	-46,08
347,431	7,17
347,643	37,89
347,855	21,5
348,067	-33,79
348,279	56,32
348,491	-3,07
348,703	9,22
348,915	-46,08
349,127	29,7
349,339	60,42
349,551	-3,07
349,763	60,42
349,975	91,13
350,187	50,18
350,399	48,13
350,61	37,89
350,822	-5,12
351,034	39,94
351,246	109,57
351,458	48,13
351,669	37,89
351,881	-13,31
352,093	27,65
352,305	78,85
352,517	11,26
352,728	52,22
352,94	70,65
353,152	13,31
353,363	72,7
353,575	95,23
353,787	119,81
353,999	84,99
354,21	-3,07
354,422	103,42
354,633	27,65
354,845	52,22
355,057	50,18
355,268	41,98
355,48	-37,89
355,692	80,89
355,903	5,12
356,115	13,31
356,326	1,02
356,538	37,89
356,749	-1,02
356,961	11,26
357,172	46,08
357,384	68,61
357,595	70,65
357,807	1,02
358,018	80,89
358,23	25,6
358,441	111,61
358,653	-19,46
358,864	29,7
359,075	29,7
359,287	60,42
359,498	13,31
359,709	41,98
359,921	23,55
360,132	41,98
360,344	99,33
360,555	17,41
360,766	56,32
360,977	15,36
361,189	25,6
361,4	70,65
361,611	66,56
361,823	-3,07
362,034	46,08
362,245	23,55
362,456	70,65
362,667	37,89
362,879	-35,84
363,09	80,89
363,301	13,31
363,512	80,89
363,723	19,46
363,935	-3,07
364,146	15,36
364,357	35,84
364,568	29,7
364,779	19,46
364,99	117,76
365,201	121,85
365,412	44,03
365,623	27,65
365,834	39,94
366,045	35,84
366,256	84,99
366,467	72,7
366,678	68,61
366,889	93,18
367,1	-35,84
367,311	5,12
367,522	52,22
367,733	144,38
367,944	54,27
368,155	17,41
368,366	74,75
368,577	37,89
368,788	74,75
368,999	50,18
369,209	87,04
369,42	101,37
369,631	87,04
369,842	60,42
370,053	87,04
370,264	52,22
370,474	25,6
370,685	60,42
370,896	74,75
371,107	44,03
371,317	109,57
371,528	76,8
371,739	82,94
371,95	91,13
372,16	140,29
372,371	99,33
372,582	46,08
372,792	70,65
373,003	87,04
373,214	64,51
373,424	48,13
373,635	74,75
373,846	58,37
374,056	89,09
374,267	44,03
374,477	37,89
374,688	99,33
374,898	21,5
375,109	95,23
375,319	123,9
375,53	111,61
375,74	95,23
375,951	99,33
376,161	82,94
376,372	101,37
376,582	130,05
376,793	109,57
377,003	117,76
377,214	171,01
377,424	171,01
377,635	132,09
377,845	109,57
378,055	91,13
378,266	179,2
378,476	103,42
378,686	107,52
378,897	93,18
379,107	87,04
379,317	60,42
379,528	150,53
379,738	95,23
379,948	82,94
380,158	89,09
380,369	136,19
380,579	134,14
380,789	72,7
380,999	84,99
381,21	74,75
381,42	68,61
381,63	23,55
381,84	41,98
382,05	46,08
382,261	91,13
382,471	58,37
382,681	156,67
382,891	136,19
383,101	72,7
383,311	187,39
383,521	134,14
383,731	101,37
383,941	91,13
384,151	152,57
384,361	87,04
384,571	171,01
384,781	117,76
384,991	201,72
385,201	146,43
385,411	224,25
385,621	89,09
385,831	130,05
386,041	162,81
386,251	107,52
386,461	209,92
386,671	267,26
386,881	179,2
387,091	228,35
387,301	87,04
387,511	207,87
387,72	234,49
387,93	242,68
388,14	201,72
388,35	318,46
388,56	297,98
388,769	261,12
388,979	295,93
389,189	195,58
389,399	257,02
389,609	287,74
389,818	244,73
390,028	275,45
390,238	228,35
390,447	236,54
390,657	175,1
390,867	242,68
391,076	154,62
391,286	140,29
391,496	146,43
391,705	78,85
391,915	117,76
392,125	171,01
392,334	171,01
392,544	168,96
392,753	117,76
392,963	232,44
393,172	168,96
393,382	304,12
393,591	238,59
393,801	322,56
394,01	195,58
394,22	244,73
394,429	226,3
394,639	173,05
394,848	177,15
395,058	187,39
395,267	173,05
395,477	173,05
395,686	244,73
395,895	302,08
396,105	254,97
396,314	343,03
396,524	461,82
396,733	529,4
396,942	742,39
397,152	695,29
397,361	826,36
397,57	1043,44
397,78	920,56
397,989	1147,89
398,198	1248,24
398,407	1229,81
398,617	1088,5
398,826	1377,26
399,035	1305,58
399,244	1405,93
399,453	1426,41
399,663	1475,56
399,872	1498,09
400,081	1762,28
400,29	1420,27
400,499	1674,21
400,708	1715,17
400,917	1827,81
401,127	1537
401,336	1815,52
401,545	1534,95
401,754	1772,52
401,963	1768,42
402,172	1793
402,381	1557,48
402,59	1995,75
402,799	1676,26
403,008	1893,35
403,217	1764,33
403,426	1821,67
403,635	1635,3
403,844	1848,29
404,053	1749,99
404,262	1821,67
404,471	1696,74
404,68	1934,31
404,888	1555,43
405,097	1797,09
405,306	1901,54
405,515	1922,02
405,724	1666,02
405,933	2048,99
406,142	2044,9
406,35	2118,62
406,559	2243,55
406,768	2419,68
406,977	2249,69
407,185	2429,91
407,394	2296,8
407,603	2388,96
407,812	2196,45
408,02	2511,83
408,229	2079,71
408,438	2184,16
408,646	2198,49
408,855	2354,14
409,064	2276,32
409,272	2675,67
409,481	2755,54
409,69	2712,53
409,898	2737,11
410,107	2872,28
410,315	2665,43
410,524	3056,59
410,733	2890,71
410,941	3032,02
411,15	2943,96
411,358	3109,84
411,567	3038,16
411,775	3144,66
411,984	2943,96
412,192	3216,33
412,401	2882,52
412,609	3220,43
412,818	3251,15
413,026	3314,64
413,234	3118,03
413,443	3228,62
413,651	3109,84
413,86	3333,07
414,068	3343,31
414,276	3421,13
414,485	3292,11
414,693	3541,96
414,901	3333,07
415,11	3711,94
415,318	3181,52
415,526	3496,91
415,734	3337,17
415,943	3494,86
416,151	3163,09
416,359	3394,51
416,567	3310,54
416,776	3441,61
416,984	3414,99
417,192	3380,17
417,4	3202
417,608	3208,14
417,817	3537,87
418,025	3419,08
418,233	3206,1
418,441	3548,11
418,649	3357,64
418,857	3830,73
419,065	3517,39
419,273	3576,78
419,481	3627,98
419,689	4084,67
419,897	3857,35
420,105	3980,23
420,313	3625,93
420,521	3668,94
420,729	3468,24
420,937	3986,37
421,145	3544,01
421,353	3937,22
421,561	3576,78
421,769	3777,48
421,977	3894,21
422,185	3673,03
422,393	3787,72
422,601	4176,83
422,809	3812,29
423,017	3939,27
423,224	3765,19
423,432	4025,28
423,64	3957,7
423,848	4219,84
424,056	3697,61
424,263	4133,82
424,471	3931,08
424,679	3967,94
424,887	3986,37
425,094	4101,06
425,302	3892,16
425,51	4156,35
425,718	3769,29
425,925	4164,54
426,133	3957,7
426,341	4043,71
426,548	4158,4
426,756	4162,5
426,964	3824,58
427,171	4187,07
427,379	3752,9
427,586	3914,69
427,794	3636,17
428,001	3738,57
428,209	3601,35
428,417	3503,05
428,624	3349,45
428,832	3410,89
429,039	2886,61
429,247	3206,1
429,454	3392,46
429,662	4162,5
429,869	3427,28
430,076	4185,02
430,284	3873,73
430,491	4449,21
430,699	4592,57
430,906	4447,16
431,114	4500,41
431,321	4867
431,528	4733,88
431,736	5192,62
431,943	5229,49
432,15	5100,47
432,358	4832,18
432,565	5280,69
432,772	4916,15
432,979	5518,25
433,187	5309,36
433,394	5522,35
433,601	5772,2
433,808	5774,25
434,016	5624,75
434,223	6243,23
434,43	6491,04
434,637	6153,12
434,844	6454,17
435,052	6491,04
435,259	6550,43
435,466	6605,72
435,673	6185,89
435,88	6636,44
436,087	6615,96
436,294	6532
436,501	6003,62
436,708	6081,44
436,915	6204,32
437,122	6312,86
437,329	6011,81
437,537	6456,22
437,743	6214,56
437,95	6486,94
438,157	6351,78
438,364	6943,64
438,571	6775,7
438,778	6730,65
438,985	6890,39
439,192	7254,93
439,399	7304,08
439,606	7107,48
439,813	7209,87
440,02	7949,19
440,227	7490,45
440,433	7359,38
440,64	7799,69
440,847	7588,75
441,054	7736,2
441,261	8059,78
441,467	7717,77
441,674	8010,63
441,881	8176,52
442,088	8127,36
442,294	7639,95
442,501	8133,51
442,708	7934,85
442,914	8305,54
443,121	8358,78
443,328	8266,63
443,534	8678,27
443,741	8055,69
443,948	7566,22
444,154	8502,14
444,361	8000,39
444,568	7951,24
444,774	7555,98
444,981	7719,82
445,187	8070,02
445,394	8326,02
445,6	8235,91
445,807	9096,05
446,013	8434,56
446,22	8588,16
446,426	9042,81
446,633	9010,04
446,839	9098,1
447,046	8551,29
447,252	9112,44
447,459	8876,92
447,665	8694,65
447,871	9300,85
448,078	9587,57
448,284	8991,61
448,491	9231,22
448,697	9702,25
448,903	9702,25
449,11	10068,84
449,316	9417,58
449,522	9956,2
449,728	9880,43
449,935	9894,76
450,141	9575,28
450,347	10281,83
450,553	9407,34
450,76	9538,41
450,966	9591,66
451,172	9489,26
451,378	9612,14
451,584	9468,78
451,791	9358,19
451,997	9474,93
452,203	9429,87
452,409	9800,55
452,615	9788,27
452,821	9393,01
453,027	9390,96
453,233	9913,19
453,44	9487,22
453,646	10005,35
453,852	9952,1
454,058	10277,73
454,264	9931,62
454,47	10298,21
454,676	10306,4
454,882	11068,25
455,088	10068,84
455,294	10867,55
455,5	11225,94
455,705	11158,36
455,911	10496,86
456,117	10951,51
456,323	10865,5
456,529	10445,66
456,735	11017,05
456,941	10908,51
457,147	10787,68
457,352	10769,24
457,558	10750,81
457,764	11322,2
457,97	11000,66
458,176	11285,33
458,381	11455,31
458,587	11031,38
458,793	11496,27
458,999	11101,01
459,204	12321,6
459,41	12813,12
459,616	11961,16
459,821	12264,26
460,027	12415,81
460,233	12712,77
460,438	12055,37
460,644	12749,63
460,85	12215,11
461,055	12688,19
461,261	12671,81
461,466	12622,66
461,672	12104,52
461,878	13235
462,083	12462,91
462,289	12557,12
462,494	12471,11
462,7	12065,61
462,905	12192,58
463,111	12798,78
463,316	12835,64
463,522	13120,31
463,727	13210,42
463,932	13697,84
464,138	13507,38
464,343	13855,53
464,549	13738,8
464,754	14521,12
464,959	14379,81
465,165	14500,64
465,37	14250,79
465,575	14215,98
465,781	14783,26
465,986	15063,83
466,191	14625,57
466,397	14734,11
466,602	14326,57
466,807	15166,23
467,012	14971,68
467,218	15467,28
467,423	15348,5
467,628	15674,13
467,833	16458,5
468,038	16046,86
468,244	15463,19
468,449	16388,87
468,654	16186,12
468,859	16018,19
469,064	15989,52
469,269	15870,73
469,474	16096,01
469,679	17222,39
469,885	16825,09
470,09	17541,88
470,295	17718
470,5	17666,8
470,705	18004,72
470,91	18141,93
471,115	17758,96
471,32	18776,8
471,525	18561,76
471,73	18430,69
471,935	18469,61
472,139	18334,44
472,344	18776,8
472,549	19188,44
472,754	19268,31
472,959	19516,12
473,164	18852,58
473,369	19262,17
473,574	20107,98
473,778	20130,51
473,983	20390,6
474,188	20622,02
474,393	19917,52
474,598	20398,79
474,802	20212,43
475,007	20558,53
475,212	20636,36
475,417	20591,3
475,621	20650,69
475,826	21578,42
476,031	21179,07
476,235	21801,65
476,44	21762,74
476,645	22250,16
476,849	22631,08
477,054	23063,2
477,259	22604,46
477,463	23399,07
477,668	23581,34
477,872	24093,33
478,077	24038,03
478,282	24072,85
478,486	24230,54
478,691	24621,7
478,895	24625,8
479,1	24990,34
479,304	24904,32
479,509	24738,44
479,713	25584,25
479,918	25899,64
480,122	26010,23
480,326	26440,3
480,531	26634,86
480,735	26841,7
480,94	26645,1
481,144	27542,11
481,348	26903,14
481,553	27365,98
481,757	26585,71
481,961	27777,62
482,166	27695,71
482,37	28158,55
482,574	27398,75
482,778	27634,27
482,983	28256,85
483,187	27970,13
483,391	28195,41
483,595	27859,54
483,8	26978,92
484,004	26847,85
484,208	26546,79
484,412	25852,53
484,616	25569,91
484,821	25430,65
485,025	24689,29
485,229	25627,26
485,433	25373,31
485,637	25922,16
485,841	25705,08
486,045	26772,07
486,249	26913,38
486,453	27413,09
486,657	27796,06
486,861	28482,13
487,065	27710,04
487,269	28447,31
487,473	28148,31
487,677	29100,61
487,881	29743,67
488,085	29743,67
488,289	30016,05
488,493	30681,64
488,697	30958,12
488,901	31146,53
489,105	31636
489,309	31615,52
489,512	31244,84
489,716	31363,62
489,92	31203,88
490,124	31109,67
490,328	31105,57
490,531	30911,02
490,735	30851,63
490,939	31369,76
491,143	31140,39
491,346	30906,92
491,55	31367,71
491,754	32000,54
491,958	31644,19
492,161	32035,35
492,365	32172,57
492,569	32016,92
492,772	32383,51
492,976	33067,53
493,18	32999,94
493,383	33626,62
493,587	33137,16
493,79	33581,57
493,994	33126,92
494,197	33542,66
494,401	33425,92
494,605	33659,39
494,808	34021,88
495,012	33808,89
495,215	33753,6
495,419	34410,99
495,622	33741,31
495,825	34243,06
496,029	33815,04
496,232	34265,59
496,436	33735,17
496,639	34040,31
496,843	33477,12
497,046	33628,67
497,249	33516,03
497,453	33466,88
497,656	33294,85
497,859	33733,12
498,063	33505,79
498,266	34109,94
498,469	33698,3
498,673	33573,38
498,876	33159,69
499,079	33491,46
499,282	32569,87
499,485	32772,62
499,689	32424,47
499,892	32598,54
500,095	31820,31
500,298	32842,25
500,501	32258,58
500,705	33368,58
500,908	32797,2
501,111	32858,63
501,314	32786,96
501,517	33223,17
501,72	33143,3
501,923	32893,45
502,126	32725,52
502,329	33198,6
502,532	32827,92
502,735	32733,71
502,938	32444,94
503,141	32965,13
503,344	33569,28
503,547	33016,33
503,75	33419,78
503,953	34195,96
504,156	34118,14
504,359	34744,81
504,562	34353,65
504,765	34994,67
504,968	34882,03
505,17	35101,16
505,373	34560,5
505,576	34736,62
505,779	34556,4
505,982	34630,13
506,185	34750,96
506,387	34617,84
506,59	34566,64
506,793	34912,75
506,996	33933,82
507,198	34482,67
507,401	34318,84
507,604	35217,89
507,807	35365,35
508,009	35004,91
508,212	34996,71
508,415	35723,74
508,617	35420,64
508,82	35611,1
509,022	34607,6
509,225	35826,14
509,428	35592,67
509,63	35695,07
509,833	35203,56
510,035	36420,05
510,238	36227,54
510,44	36463,06
510,643	36344,28
510,845	36348,37
511,048	36719,06
511,25	36473,3
511,453	36016,6
511,655	36846,03
511,858	35932,64
512,06	35940,83
512,262	36409,81
512,465	35617,25
512,667	35910,11
512,87	36153,82
513,072	35043,82
513,274	36282,84
513,477	35799,52
513,679	36295,13
513,881	36256,21
514,084	36282,84
514,286	36358,61
514,488	36407,76
514,69	36628,95
514,893	36043,23
515,095	35060,2
515,297	34632,18
515,499	33731,07
515,701	33843,71
515,904	33585,66
516,106	33442,31
516,308	33679,87
516,51	33866,24
516,712	33987,07
516,914	34370,04
517,116	34191,86
517,318	34415,09
517,52	34234,87
517,722	34404,85
517,925	34564,59
518,127	35316,2
518,329	35762,65
518,531	35903,96
518,733	36753,87
518,935	36800,97
519,136	36895,18
519,338	37405,13
519,54	37077,45
519,742	37886,4
519,944	37325,25
520,146	38250,94
520,348	38216,12
520,55	38760,88
520,752	38013,37
520,954	38762,93
521,155	38291,9
521,357	39018,92
521,559	38470,07
521,761	39045,55
521,963	38666,67
522,164	39016,88
522,366	39111,08
522,568	39246,25
522,77	39172,52
522,971	40059,29
523,173	39805,34
523,375	40325,53
523,576	39938,46
523,778	39637,41
523,98	40311,19
524,181	40458,65
524,383	39647,65
524,584	40077,72
524,786	39547,3
524,988	38949,29
525,189	38562,23
525,391	37300,68
525,592	37122,51
525,794	37411,27
525,995	36620,75
526,197	37372,36
526,398	36852,17
526,6	37491,14
526,801	37966,27
527,003	38748,59
527,204	38709,68
527,406	39276,97
527,607	38883,76
527,808	39414,18
528,01	39010,73
528,211	39004,59
528,412	39199,15
528,614	39270,82
528,815	39336,36
529,016	40135,07
529,218	39469,48
529,419	40346,01
529,62	40378,78
529,822	39807,39
530,023	40128,92
530,224	40026,53
530,425	39852,45
530,626	39115,18
530,828	38459,83
531,029	39131,56
531,23	38087,1
531,431	37929,41
531,632	37648,83
531,833	37591,49
532,035	37525,96
532,236	37673,41
532,437	37669,31
532,638	37001,68
532,839	37808,58
533,04	37611,97
533,241	37110,22
533,442	38500,79
533,643	38023,61
533,844	37974,46
534,045	38318,52
534,246	37599,68
534,447	38412,73
534,648	38488,5
534,849	38121,91
535,05	38113,72
535,251	38214,07
535,451	37429,7
535,652	37571,01
535,853	37095,88
536,054	37077,45
536,255	38070,72
536,456	37837,25
536,657	38621,62
536,857	37566,91
537,058	37781,95
537,259	38373,81
537,46	37724,61
537,66	37525,96
537,861	37220,81
538,062	37106,12
538,263	36915,66
538,463	36436,44
538,664	36321,75
538,865	35908,06
539,065	36157,91
539,266	35729,89
539,466	35619,3
539,667	35406,31
539,868	36106,71
540,068	35486,18
540,269	35713,5
540,469	36078,04
540,67	35654,11
540,87	35703,26
541,071	36241,88
541,271	35580,39
541,472	35807,71
541,672	35330,53
541,873	35619,3
542,073	35209,7
542,274	36116,95
542,474	35578,34
542,675	35400,16
542,875	35854,81
543,075	35721,69
543,276	35047,91
543,476	36319,7
543,676	35820
543,877	35994,07
544,077	35932,64
544,277	36041,18
544,478	35953,12
544,678	36291,03
544,878	35963,36
545,078	36303,32
545,279	35764,7
545,479	35918,3
545,679	36080,09
545,879	35795,42
546,079	35736,03
546,28	35783,13
546,48	34652,66
546,68	35101,16
546,88	35168,74
547,08	35117,54
547,28	35060,2
547,48	35201,51
547,68	35463,65
547,88	35463,65
548,081	35903,96
548,281	35281,38
548,481	35277,29
548,681	35625,44
548,881	34972,14
549,081	35299,81
549,28	35060,2
549,48	35867,1
549,68	35725,79
549,88	36714,96
550,08	35383,78
550,28	35772,89
550,48	35295,72
550,68	35918,3
550,88	35500,51
551,08	35375,59
551,279	35924,44
551,479	35037,67
551,679	35160,55
551,879	35408,36
552,079	35662,3
552,278	35525,09
552,478	34984,43
552,678	35609,06
552,878	35324,39
553,077	35174,89
553,277	34896,36
553,477	35533,28
553,676	35121,64
553,876	35736,03
554,076	35523,04
554,275	35365,35
554,475	34523,63
554,674	35467,75
554,874	35328,48
555,074	35662,3
555,273	35133,93
555,473	35609,06
555,672	34710
555,872	34839,02
556,071	34673,13
556,271	34642,42
556,47	34093,56
556,67	34095,61
556,869	34169,33
557,068	34542,06
557,268	33831,42
557,467	33884,67
557,667	33774,08
557,866	33147,4
558,065	32973,32
558,265	32901,64
558,464	32242,2
558,663	33124,87
558,863	32582,16
559,062	33741,31
559,261	33221,13
559,461	33757,69
559,66	33552,9
559,859	33831,42
560,058	33253,89
560,258	33819,13
560,457	33227,27
560,656	33409,54
560,855	33182,21
561,054	33413,63
561,253	32901,64
561,453	33325,57
561,652	33589,76
561,851	33987,07
562,05	33778,17
562,249	33604,1
562,448	33843,71
562,647	33702,4
562,846	33165,83
563,045	33341,96
563,244	32776,72
563,443	33597,95
563,642	32965,13
563,841	33024,52
564,04	32360,98
564,239	33237,51
564,438	32324,11
564,637	32424,47
564,836	31781,4
565,035	31713,82
565,234	32033,3
565,432	31965,72
565,631	32309,78
565,83	32823,82
566,029	32533,01
566,228	32389,65
566,427	32180,76
566,625	32014,87
566,824	31498,78
567,023	32010,78
567,222	31212,07
567,42	31988,25
567,619	31715,87
567,818	31562,27
568,016	31390,24
568,215	31703,58
568,414	31132,2
568,612	31613,47
568,811	31365,67
569,01	31496,74
569,208	30196,28
569,407	30777,9
569,605	29915,7
569,804	29854,26
570,002	29715
570,201	30071,35
570,4	29710,91
570,598	30100,02
570,797	30339,63
570,995	30683,69
571,193	30345,78
571,392	30685,74
571,59	30188,08
571,789	30976,55
571,987	30157,36
572,186	30612,01
572,384	30157,36
572,582	30448,18
572,781	30339,63
572,979	30253,62
573,177	29999,67
573,376	30476,85
573,574	30011,96
573,772	30315,06
573,971	29688,38
574,169	29678,14
574,367	29131,33
574,565	29932,09
574,763	29319,74
574,962	29772,35
575,16	29063,75
575,358	29526,59
575,556	29102,66
575,754	29387,33
575,952	28990,02
576,151	29776,44
576,349	29051,46
576,547	29051,46
576,745	28623,44
576,943	29131,33
577,141	28871,24
577,339	29010,5
577,537	28414,54
577,735	28422,73
577,933	28541,52
578,131	29069,89
578,329	29026,89
578,527	29434,43
578,725	28967,49
578,923	29786,68
579,121	29729,34
579,319	30204,47
579,516	30167,6
579,714	30171,7
579,912	30196,28
580,11	30712,36
580,308	30956,07
580,506	30325,3
580,704	30302,77
580,901	30724,65
581,099	31203,88
581,297	31228,45
581,495	31107,62
581,692	31502,88
581,89	31406,62
582,088	31832,6
582,285	31709,72
582,483	32498,19
582,681	32064,02
582,878	32080,41
583,076	31365,67
583,274	32121,37
583,471	31597,09
583,669	32369,17
583,866	32336,4
584,064	32502,29
584,262	31730,2
584,459	32250,39
584,657	31394,34
584,854	32031,26
585,052	31158,82
585,249	31554,08
585,447	31656,48
585,644	31791,64
585,841	31711,77
586,039	32260,63
586,236	31883,8
586,434	31752,73
586,631	31306,27
586,828	31152,68
587,026	31187,49
587,223	31019,56
587,42	30128,69
587,618	29741,63
587,815	29002,31
588,012	28949,06
588,21	28238,42
588,407	28273,23
588,604	27449,95
588,801	27636,31
588,999	28373,58
589,196	28701,26
589,393	28678,73
589,59	28734,03
589,787	29229,63
589,984	28983,88
590,182	29268,55
590,379	29471,29
590,576	29383,23
590,773	29092,42
590,97	28973,64
591,167	29669,95
591,364	29127,24
591,561	29647,42
591,758	29413,95
591,955	30038,58
592,152	29608,51
592,349	29698,62
592,546	29309,5
592,743	29643,32
592,94	29395,52
593,137	29727,29
593,334	28897,86
593,531	28928,58
593,727	28777,03
593,924	28541,52
594,121	28435,02
594,318	28662,35
594,515	28547,66
594,712	29141,57
594,908	28580,43
595,105	29446,72
595,302	28713,55
595,499	29145,67
595,696	28838,47
595,892	28736,07
596,089	29209,15
596,286	29526,59
596,482	29160
596,679	29282,88
596,876	28889,67
597,072	28938,82
597,269	28500,56
597,466	28590,67
597,662	29100,61
597,859	28879,43
598,055	28817,99
598,252	28672,59
598,448	29192,77
598,645	29043,27
598,841	28387,92
599,038	29055,56
599,234	28867,14
599,431	28672,59
599,627	28426,83
599,824	28826,18
600,02	28252,75
600,217	28707,4
600,413	27923,03
600,609	27748,95
600,806	27357,79
601,002	27900,5
601,198	27677,27
601,395	28045,91
601,591	28578,38
601,787	28758,6
601,984	28635,72
602,18	29198,91
602,376	28840,52
602,572	28932,68
602,769	28783,18
602,965	29117
603,161	28801,61
603,357	28787,27
603,553	28133,97
603,75	28777,03
603,946	27877,97
604,142	28471,89
604,338	28246,61
604,534	28740,17
604,73	28484,17
604,926	29209,15
605,122	29379,14
605,318	28815,94
605,514	28322,38
605,71	28650,06
605,906	28521,04
606,102	28834,38
606,298	29067,84
606,494	29090,37
606,69	29147,72
606,886	29188,67
607,082	28676,68
607,278	29227,59
607,474	28885,58
607,67	29870,65
607,866	29215,3
608,062	29909,56
608,257	29237,83
608,453	29524,54
608,649	29481,53
608,845	29188,67
609,041	28912,2
609,236	29362,75
609,432	29174,34
609,628	29139,52
609,824	29540,93
610,019	29096,52
610,215	29014,6
610,411	29360,7
610,606	29127,24
610,802	29487,68
610,998	29321,79
611,193	29825,59
611,389	29284,93
611,584	29968,95
611,78	29647,42
611,976	29622,84
612,171	29592,12
612,367	29932,09
612,562	29479,49
612,758	29258,31
612,953	29686,33
613,149	29895,22
613,344	29377,09
613,539	30585,39
613,735	29844,02
613,93	30411,31
614,126	30382,64
614,321	30364,21
614,517	30128,69
614,712	30059,06
614,907	29979,19
615,103	30452,27
615,298	30280,24
615,493	30663,21
615,688	29825,59
615,884	30366,26
616,079	29528,64
616,274	30872,1
616,47	30079,54
616,665	30388,78
616,86	30427,7
617,055	30974,5
617,25	30859,82
617,445	31109,67
617,641	30698,03
617,836	31285,79
618,031	30482,99
618,226	31103,53
618,421	30071,35
618,616	30808,62
618,811	30423,6
619,006	31324,71
619,201	30796,33
619,396	31691,29
619,591	31549,98
619,786	31615,52
619,981	31203,88
620,176	31767,07
620,371	31146,53
620,566	31582,75
620,761	30878,25
620,956	31789,59
621,151	31441,44
621,346	31765,02
621,541	31138,34
621,735	31439,39
621,93	30702,12
622,125	31033,89
622,32	30026,29
622,515	30368,3
622,709	29727,29
622,904	30145,08
623,099	29694,52
623,294	29620,8
623,488	29243,97
623,683	30061,11
623,878	29205,06
624,072	29561,4
624,267	28920,39
624,462	29069,89
624,656	28609,1
624,851	29407,81
625,046	28899,91
625,24	28885,58
625,435	28287,57
625,629	28787,27
625,824	28193,36
626,018	28258,9
626,213	27798,1
626,407	28318,29
626,602	27290,21
626,796	27429,47
626,991	26479,21
627,185	26114,67
627,38	25684,6
627,574	25787
627,768	25467,52
627,963	26446,44
628,157	25954,93
628,352	26176,11
628,546	25897,59
628,74	26442,35
628,935	25719,42
629,129	25850,49
629,323	25809,53
629,517	25928,31
629,712	25975,41
629,906	26034,8
630,1	25672,31
630,294	25805,43
630,489	25780,85
630,683	26186,35
630,877	25905,78
631,071	25942,64
631,265	26178,16
631,459	26376,81
631,653	25983,6
631,848	26593,9
632,042	26378,86
632,236	27343,45
632,43	26352,24
632,624	27009,64
632,818	27023,97
633,012	26839,65
633,206	26954,34
633,4	26798,7
633,594	26585,71
633,788	27034,21
633,982	27581,02
634,176	27224,67
634,369	26911,33
634,563	27171,43
634,757	27021,92
634,951	27507,29
635,145	27253,34
635,339	27888,21
635,533	27157,09
635,726	27603,55
635,92	26976,87
636,114	27439,71
636,308	27347,55
636,501	27517,53
636,695	27804,25
636,889	27798,1
637,083	27499,1
637,276	27562,59
637,47	27515,48
637,664	27914,84
637,857	27804,25
638,051	27505,24
638,244	27462,24
638,438	27671,13
638,632	27511,39
638,825	27597,4
639,019	27533,92
639,212	27452
639,406	27619,93
639,599	27617,88
639,793	27974,23
639,986	27122,27
640,18	27003,49
640,373	27189,86
640,567	26774,12
640,76	27484,76
640,954	27388,51
641,147	27327,07
641,34	27163,23
641,534	27118,18
641,727	26991,2
641,92	27456,09
642,114	26569,32
642,307	27478,62
642,5	26974,82
642,694	26684,01
642,887	26626,67
643,08	27445,85
643,273	27337,31
643,467	27388,51
643,66	27095,65
643,853	27130,47
644,046	26878,57
644,239	27861,59
644,432	27398,75
644,626	27087,46
644,819	26913,38
645,012	26989,16
645,205	26946,15
645,398	26622,57
645,591	26321,52
645,784	27421,28
645,977	26813,03
646,17	26579,56
646,363	25864,82
646,556	25936,5
646,749	26262,13
646,942	26618,47
647,135	26268,27
647,328	25913,97
647,521	25619,07
647,714	25367,16
647,907	25410,17
648,099	25481,85
648,292	25555,58
648,485	25635,45
648,678	25197,18
648,871	25062,02
649,064	24797,83
649,256	25256,57
649,449	24861,32
649,642	25582,2
649,835	25123,46
650,027	25571,96
650,22	25680,5
650,413	26010,23
650,605	26096,24
650,798	25971,32
650,991	25213,57
651,183	25111,17
651,376	24885,89
651,568	25762,42
651,761	25371,26
651,954	25477,76
652,146	25864,82
652,339	25608,83
652,531	25999,99
652,724	26225,26
652,916	25739,9
653,109	25907,83
653,301	25586,3
653,494	25625,21
653,686	25029,25
653,879	25391,74
654,071	25240,19
654,263	25469,56
654,456	25246,33
654,648	24787,59
654,84	24414,86
655,033	24533,64
655,225	23560,86
655,417	23202,46
655,61	22192,81
655,802	22354,6
655,994	21248,7
656,186	22000,3
656,379	21287,61
656,571	22022,83
656,763	22524,58
656,955	23147,17
657,148	23321,24
657,34	23890,58
657,532	23798,42
657,724	24033,94
657,916	23814,8
658,108	24169,1
658,3	24005,27
658,492	24367,76
658,684	23829,14
658,876	24459,91
659,068	24371,85
659,26	24621,7
659,452	24580,74
659,644	24885,89
659,836	24445,58
660,028	25358,97
660,22	25311,87
660,412	25299,58
660,604	25059,97
660,796	25371,26
660,988	25375,36
661,18	25346,69
661,372	25082,5
661,563	25662,07
661,755	25008,77
661,947	25604,73
662,139	24980,1
662,331	25152,13
662,522	24564,36
662,714	25225,86
662,906	24785,54
663,097	24986,24
663,289	24466,06
663,481	24656,52
663,673	24711,81
663,864	24423,05
664,056	24269,45
664,247	25049,73
664,439	24314,51
664,631	25162,37
664,822	24840,84
665,014	25256,57
665,205	25105,02
665,397	24617,61
665,588	24889,99
665,78	24736,39
665,971	24400,52
666,163	24328,84
666,354	24507,02
666,546	24902,28
666,737	24785,54
666,929	24810,12
667,12	24513,16
667,311	24484,49
667,503	24298,13
667,694	24625,8
667,885	23974,55
668,077	24386,19
668,268	24185,49
668,459	24769,16
668,651	24304,27
668,842	24466,06
669,033	24025,75
669,224	24472,2
669,416	24687,24
669,607	24662,66
669,798	23876,24
669,989	24523,4
670,18	24416,91
670,371	24062,61
670,563	24212,11
670,754	24658,57
670,945	23841,43
671,136	24742,53
671,327	24115,86
671,518	23906,96
671,709	23423,64
671,9	24222,35
672,091	23464,6
672,282	23698,07
672,473	23614,1
672,664	24363,66
672,855	23702,17
673,046	24171,15
673,237	23800,47
673,428	23726,74
673,619	23534,23
673,809	23806,61
674	23423,64
674,191	23288,48
674,382	23306,91
674,573	23634,58
674,764	23487,13
674,954	23814,8
675,145	23022,24
675,336	23653,02
675,527	23591,58
675,717	24068,75
675,908	23372,44
676,099	23626,39
676,289	23347,87
676,48	23519,9
676,671	22831,78
676,861	23564,95
677,052	22792,87
677,243	22850,21
677,433	23001,76
677,624	23122,59
677,814	22645,41
678,005	23335,58
678,195	22934,18
678,386	23538,33
678,576	22710,95
678,767	23265,95
678,957	23595,67
679,148	23610,01
679,338	23171,74
679,529	23466,65
679,719	23075,49
679,909	23990,93
680,1	22760,1
680,29	23419,55
680,481	22934,18
680,671	23599,77
680,861	23235,23
681,052	23419,55
681,242	23239,33
681,432	23214,75
681,622	22315,69
681,813	23003,81
682,003	22856,36
682,193	22663,85
682,383	22764,2
682,573	23071,39
682,764	22579,88
682,954	23077,54
683,144	22727,33
683,334	22586,02
683,524	22327,98
683,714	22932,13
683,904	22753,96
684,094	22809,25
684,284	21820,08
684,474	22235,82
684,664	22119,09
684,854	22432,43
685,044	22323,88
685,234	21994,16
685,424	22172,33
685,614	22104,75
685,804	21328,57
685,994	20931,26
686,184	19378,9
686,374	18068,2
686,564	16163,59
686,753	14826,27
686,943	13255,48
687,133	12815,16
687,323	12522,3
687,513	13353,78
687,702	13773,61
687,892	14295,85
688,082	14297,89
688,272	14873,37
688,461	13988,65
688,651	13910,83
688,841	13333,3
689,03	13468,47
689,22	13650,74
689,41	14041,9
689,599	13798,19
689,789	14086,95
689,979	13951,79
690,168	15057,69
690,358	14889,76
690,547	15543,06
690,737	15997,71
690,926	16413,45
691,116	16141,07
691,305	16618,24
691,495	16878,33
691,684	17324,79
691,874	17572,6
692,063	18037,48
692,252	17756,91
692,442	18266,86
692,631	18084,59
692,82	18279,15
693,01	17732,34
693,199	18189,03
693,388	17591,03
693,578	18248,43
693,767	18062,06
693,956	18531,05
694,146	18295,53
694,335	18535,14
694,524	18459,37
694,713	18668,26
694,902	18479,85
695,092	19284,7
695,281	18588,39
695,47	18905,82
695,659	18989,79
695,848	18582,24
696,037	18862,82
696,226	19350,23
696,415	19284,7
696,604	19788,5
696,793	19864,27
696,982	20097,74
697,171	19759,83
697,36	20220,62
697,549	19909,33
697,738	19927,76
697,927	19639
698,116	19964,62
698,305	19200,73
698,494	19669,72
698,683	19055,33
698,872	19120,86
699,061	18922,21
699,25	19348,18
699,438	19360,47
699,627	19704,53
699,816	19014,37
700,005	19288,79
700,193	18658,02
700,382	19153,63
700,571	18301,67
700,76	18399,98
700,948	18494,18
701,137	18709,22
701,326	18629,35
701,514	18649,83
701,703	18135,79
701,892	18289,38
702,08	18342,63
702,269	18885,34
702,457	18627,3
702,646	18903,78
702,834	18270,95
703,023	18348,78
703,212	18524,9
703,4	18719,46
703,589	18397,93
703,777	18871,01
703,965	18574,05
704,154	18701,03
704,342	18565,86
704,531	18995,93
704,719	18514,66
704,907	18809,57
705,096	18797,28
705,284	18666,21
705,472	18467,56
705,661	18627,3
705,849	18914,02
706,037	19256,03
706,226	18658,02
706,414	19139,29
706,602	19065,57
706,79	18787,04
706,979	18997,98
707,167	18983,65
707,355	18541,29
707,543	18572
707,731	18893,54
707,919	18969,31
708,107	18631,4
708,296	18875,1
708,484	18885,34
708,672	19385,05
708,86	18709,22
709,048	18674,4
709,236	18557,67
709,424	18891,49
709,612	18639,59
709,8	19196,64
709,988	18633,44
710,176	18639,59
710,364	18545,38
710,551	18772,71
710,739	18344,68
710,927	18467,56
711,115	18369,26
711,303	18563,81
711,491	17849,07
711,679	18674,4
711,866	18057,96
712,054	18363,11
712,242	17754,87
712,43	17939,18
712,617	17865,46
712,805	17793,78
712,993	18156,27
713,181	17953,52
713,368	18197,23
713,556	18330,34
713,744	17922,8
713,931	18744,03
714,119	18105,07
714,306	17826,54
714,494	17183,48
714,682	17257,21
714,869	16894,72
715,057	17494,77
715,244	16968,45
715,432	17722,1
715,619	17111,8
715,807	17228,54
715,994	16825,09
716,182	16331,53
716,369	15975,18
716,556	15909,65
716,744	15125,27
716,931	15004,44
717,119	14465,83
717,306	14496,55
717,493	13790
717,681	14086,95
717,868	12970,81
718,055	13028,15
718,242	12686,14
718,43	12729,15
718,617	12135,24
718,804	12002,12
718,991	11481,94
719,179	11682,64
719,366	11424,59
719,553	11277,14
719,74	11146,07
719,927	11608,91
720,114	11209,56
720,301	11330,39
720,488	11492,18
720,676	12006,22
720,863	12053,32
721,05	12563,26
721,237	12526,4
721,424	13413,17
721,611	13374,26
721,798	13775,66
721,985	13579,06
722,172	13896,49
722,358	13552,43
722,545	14232,36
722,732	13742,89
722,919	13560,63
723,106	13022,01
723,293	13167,42
723,48	13116,22
723,667	13161,27
723,853	12315,46
724,04	12784,44
724,227	12542,78
724,414	12639,04
724,6	12483,39
724,787	12297,03
724,974	12061,51
725,161	12835,64
725,347	12079,94
725,534	12272,45
725,72	11995,98
725,907	12143,43
726,094	12055,37
726,28	11772,75
726,467	11637,58
726,653	12282,69
726,84	12241,73
727,027	12530,5
727,213	11715,41
727,4	12170,05
727,586	11866,95
727,773	11860,81
727,959	11748,17
728,145	12067,66
728,332	11977,55
728,518	12315,46
728,705	12186,44
728,891	12258,12
729,077	11449,17
729,264	11731,79
729,45	11678,54
729,636	12186,44
729,823	12303,17
730,009	12350,28
730,195	12028,74
730,382	12098,38
730,568	12114,76
730,754	12372,8
730,94	12405,57
731,126	12669,76
731,313	12206,92
731,499	12589,89
731,685	12342,08
731,871	12620,61
732,057	12444,48
732,243	12794,68
732,429	13065,02
732,615	13044,54
732,801	13034,3
732,987	12985,15
733,173	12714,81
733,359	13271,86
733,545	13116,22
733,731	13462,32
733,917	13652,78
734,103	14238,5
734,289	13736,75
734,475	13927,21
734,661	13570,86
734,847	13656,88
735,033	13751,09
735,219	14142,25
735,404	14025,51
735,59	14146,34
735,776	13751,09
735,962	14070,57
736,148	13226,81
736,333	13577,01
736,519	13235
736,705	13605,68
736,89	13241,14
737,076	13482,8
737,262	13325,11
737,447	13609,78
737,633	13628,21
737,819	14197,54
738,004	13525,81
738,19	13650,74
738,375	13663,02
738,561	13658,93
738,747	13232,95
738,932	13321,01
739,118	13114,17
739,303	13337,4
739,489	13388,6
739,674	13398,84
739,859	13239,09
740,045	13364,02
740,23	13243,19
740,416	13390,64
740,601	13482,8
740,786	13376,31
740,972	13046,58
741,157	13407,03
741,342	13169,46
741,528	13361,97
741,713	13019,96
741,898	12915,51
742,084	12927,8
742,269	13658,93
742,454	13069,11
742,639	13402,93
742,824	13101,88
743,01	13347,64
743,195	13462,32
743,38	13550,39
743,565	12968,76
743,75	13421,36
743,935	13124,41
744,12	13517,62
744,305	13044,54
744,49	13304,63
744,675	12964,67
744,86	12845,88
745,045	12399,43
745,23	12862,27
745,415	13368,12
745,6	13318,96
745,785	12809,02
745,97	13089,59
746,155	12643,14
746,34	12542,78
746,525	12444,48
746,71	12872,51
746,895	12383,04
747,079	12620,61
747,264	12673,85
747,449	13144,89
747,634	12456,77
747,819	12858,17
748,003	12530,5
748,188	12694,33
748,373	12309,32
748,557	12571,46
748,742	12434,24
748,927	12776,25
749,111	12198,73
749,296	12319,56
749,481	12137,29
749,665	12458,82
749,85	11838,28
750,034	12403,52
750,219	11926,35
750,404	12503,87
750,588	12010,31
750,773	12397,38
750,957	12163,91
751,141	12059,46
751,326	11778,89
751,51	12290,88
751,695	11725,65
751,879	12061,51
752,064	12145,48
752,248	12180,29
752,432	12059,46
752,617	12036,94
752,801	11805,52
752,985	12024,65
753,17	11563,86
753,354	12014,41
753,538	11866,95
753,722	12098,38
753,907	11772,75
754,091	11928,39
754,275	11647,82
754,459	11983,69
754,643	11524,94
754,828	11948,87
755,012	11506,51
755,196	11791,18
755,38	11125,59
755,564	11463,51
755,748	11015
755,932	11557,71
756,116	11232,08
756,3	11486,03
756,484	11053,91
756,668	11213,65
756,852	11115,35
757,036	11318,1
757,22	10984,28
757,404	11098,97
757,588	10656,61
757,772	10771,29
757,956	10775,39
758,14	10648,41
758,323	10793,82
758,507	11133,78
758,691	10634,08
758,875	10335,07
759,059	9720,68
759,242	9165,68
759,426	8059,78
759,61	6996,89
759,794	5422
759,977	4047,81
760,161	2847,7
760,345	1942,5
760,528	1305,58
760,712	787,44
760,895	427
761,079	394,23
761,263	275,45
761,446	283,64
761,63	248,83
761,813	467,96
761,997	510,97
762,18	572,41
762,364	455,67
762,547	470,01
762,731	283,64
762,914	183,29
763,098	193,53
763,281	140,29
763,464	140,29
763,648	113,66
763,831	156,67
764,015	160,77
764,198	203,77
764,381	267,26
764,564	330,75
764,748	383,99
764,931	588,79
765,114	959,47
765,297	979,95
765,481	1555,43
765,664	1883,11
765,847	2278,37
766,03	2536,41
766,213	3396,56
766,397	3703,75
766,58	4291,52
766,763	4621,24
766,946	5458,86
767,129	5827,5
767,312	6548,38
767,495	6777,75
767,678	7256,98
767,861	7646,09
768,044	8475,52
768,227	8596,35
768,41	8862,58
768,593	9094,01
768,776	9188,21
768,959	9255,79
769,142	9661,29
769,324	9763,69
769,507	10122,09
769,69	10005,35
769,873	10365,79
770,056	10689,37
770,239	10670,94
770,421	10691,42
770,604	10894,17
770,787	10955,61
770,97	11473,74
771,152	11144,02
771,335	11934,54
771,518	11651,92
771,7	12315,46
771,883	12006,22
772,066	12333,89
772,248	12090,18
772,431	12294,98
772,613	12112,71
772,796	12077,9
772,978	12469,06
773,161	12548,93
773,343	12190,53
773,526	12591,94
773,708	12374,85
773,891	12759,87
774,073	12555,07
774,256	12845,88
774,438	12546,88
774,621	12460,87
774,803	12014,41
774,985	12016,46
775,168	11729,74
775,35	11731,79
775,532	11774,8
775,715	12286,79
775,897	12053,32
776,079	12370,76
776,261	12409,67
776,444	12675,9
776,626	12350,28
776,808	12407,62
776,99	12155,72
777,173	12448,58
777,355	11965,26
777,537	12254,02
777,719	11922,25
777,901	12284,74
778,083	11701,07
778,265	11957,07
778,447	11426,64
778,629	11746,12
778,811	11942,73
778,993	12170,05
779,175	12079,94
779,357	12366,66
779,539	11891,53
779,721	12147,53
779,903	11766,6
780,085	11819,85
780,267	11570
780,449	11719,5
780,631	11516,75
780,812	11645,77
780,994	11512,66
781,176	11903,82
781,358	11678,54
781,54	11727,69
781,721	11184,98
781,903	11311,96
782,085	11197,27
782,267	11510,61
782,448	11348,82
782,63	11463,51
782,812	11205,46
782,993	11160,41
783,175	11164,5
783,357	11088,73
783,538	10963,8
783,72	10978,14
783,901	10380,13
784,083	10617,69
784,264	10867,55
784,446	10853,21
784,627	10562,4
784,809	10910,55
784,99	10693,47
785,172	10748,76
785,353	10146,66
785,535	10640,22
785,716	10517,34
785,897	10281,83
786,079	10007,4
786,26	10134,37
786,441	10107,75
786,623	10285,92
786,804	10056,55
786,985	10234,72
787,167	10070,89
787,348	9997,16
787,529	9810,79
787,71	10173,28
787,891	10029,93
788,073	10169,19
788,254	9765,74
788,435	9601,9
788,616	9180,02
788,797	9536,37
788,978	9077,62
789,159	9386,86
789,34	9341,81
789,522	9272,18
789,703	8713,08
789,884	9055,09
790,065	8723,32
790,246	8901,5
790,427	9044,85
790,607	9245,55
790,788	8641,4
790,969	8840,06
791,15	8878,97
791,331	9042,81
791,512	8721,27
791,693	8907,64
791,874	8721,27
792,054	8584,06
792,235	8506,24
792,416	8424,32
792,597	8211,33
792,778	8244,1
792,958	8332,16
793,139	8379,26
793,32	8049,54
793,5	8301,44
793,681	7873,42
793,862	8168,32
794,042	7865,22
794,223	8160,13
794,404	7828,36
794,584	7789,45
794,765	7357,33
794,945	7887,75
795,126	7799,69
795,306	7977,86
795,487	7719,82
795,667	7988,1
795,848	7584,65
796,028	7990,15
796,209	7621,52
796,389	8153,99
796,57	7734,15
796,75	7902,09
796,93	7766,92
797,111	7809,93
797,291	7488,4
797,471	7637,9
797,652	7211,92
797,832	7789,45
798,012	7541,64
798,192	7459,73
798,373	7517,07
798,553	7252,88
798,733	7125,91
798,913	7463,82
799,093	7469,97
799,274	7410,57
799,454	6986,65
799,634	7267,22
799,814	7007,13
799,994	7033,75
800,174	6611,87
800,354	7050,13
800,534	6699,93
800,714	6888,34
800,894	7039,89
801,074	7123,86
801,254	6837,14
801,434	6931,35
801,614	6857,62
801,794	6966,17
801,974	6783,9
802,154	6783,9
802,334	6515,61
802,514	6859,67
802,693	6534,04
802,873	6589,34
803,053	6280,1
803,233	6466,46
803,413	6314,91
803,592	6417,31
803,772	6251,42
803,952	6591,39
804,131	6300,58
804,311	6218,66
804,491	6085,54
804,67	6421,41
804,85	6146,98
805,03	6443,93
805,209	6085,54
805,389	6179,75
805,568	6140,83
805,748	6302,62
805,928	6349,73
806,107	6550,43
806,287	6278,05
806,466	6370,21
806,646	6384,54
806,825	6517,66
807,004	6046,63
807,184	6392,73
807,363	6306,72
807,543	6339,49
807,722	5966,76
807,901	6159,27
808,081	6005,67
808,26	6278,05
808,439	5819,3
808,619	6005,67
808,798	6009,76
808,977	5780,39
809,156	5663,66
809,336	5577,64
809,515	5479,34
809,694	5462,96
809,873	5508,01
810,052	5727,14
810,231	5430,19
810,411	5772,2
810,59	5690,28
810,769	5428,14
810,948	5221,3
811,127	5417,9
811,306	5393,33
811,485	5364,65
811,664	5405,61
811,843	5444,52
812,022	5106,61
812,201	5540,78
812,38	5321,65
812,559	5352,37
812,737	4920,24
812,916	5262,26
813,095	4768,7
813,274	4905,91
813,453	4326,33
813,632	4406,2
813,811	4291,52
813,989	4148,16
814,168	3990,47
814,347	4062,15
814,526	3810,25
814,704	4010,95
814,883	3533,77
815,062	3840,97
815,24	3326,93
815,419	3288,01
815,598	3230,67
815,776	3290,06
815,955	3036,11
816,133	3095,5
816,312	2878,42
816,49	2841,56
816,669	2690,01
816,847	3013,59
817,026	2788,31
817,204	2935,76
817,383	2804,69
817,561	3009,49
817,74	2782,17
817,918	2757,59
818,097	2571,22
818,275	2831,32
818,453	2579,42
818,632	2925,52
818,81	2640,86
818,988	2786,26
819,167	2733,01
819,345	2890,71
819,523	2517,98
819,701	2931,67
819,879	2618,33
820,058	2683,86
820,236	2446,3
820,414	2601,94
820,592	2767,83
820,77	2927,57
820,948	3040,21
821,127	3453,9
821,305	3345,36
821,483	3593,16
821,661	3263,44
821,839	3636,17
822,017	3290,06
822,195	3613,64
822,373	3163,09
822,551	3193,81
822,729	2671,58
822,907	2595,8
823,085	2165,73
823,262	2259,93
823,44	1866,72
823,618	1838,05
823,796	1651,69
823,974	1973,22
824,152	2030,56
824,329	2503,64
824,507	2255,84
824,685	2761,69
824,863	2667,48
825,04	3091,41
825,218	2810,84
825,396	3115,98
825,574	2939,86
825,751	3052,5
825,929	2954,19
826,107	3091,41
826,284	3091,41
826,462	3269,58
826,639	3077,07
826,817	3199,95
826,994	2868,18
827,172	3011,54
827,349	2845,65
827,527	2862,04
827,704	2995,15
827,882	2870,23
828,059	2554,84
828,237	2714,58
828,414	2333,66
828,591	2458,59
828,769	2378,72
828,946	2354,14
829,124	2114,53
829,301	2327,52
829,478	2051,04
829,655	2374,62
829,833	2212,83
830,01	2442,2
830,187	2438,11
830,364	2495,45
830,542	2370,52
830,719	2505,69
830,896	2120,67
831,073	2548,7
831,25	2442,2
831,427	2565,08
831,604	2354,14
831,782	2548,7
831,959	2194,4
832,136	2360,28
832,313	1979,36
832,49	2278,37
832,667	2141,15
832,844	2198,49
833,021	2034,66
833,198	2225,12
833,374	2163,68
833,551	2358,24
833,728	2454,49
833,905	2501,59
834,082	2132,96
834,259	2255,84
834,436	1897,44
834,612	2356,19
834,789	2135,01
834,966	2350,04
835,143	2247,65
835,319	2616,28
835,496	2479,07
835,673	2733,01
835,85	2362,33
836,026	2681,82
836,203	2358,24
836,38	2534,36
836,556	2104,29
836,733	2442,2
836,909	2333,66
837,086	2311,13
837,262	2218,97
837,439	2409,44
837,616	2102,24
837,792	2266,08
837,968	2348
838,145	2487,26
838,321	2391
838,498	2415,58
838,674	2272,22
838,851	2325,47
839,027	2292,7
839,203	2276,32
839,38	2151,39
839,556	2368,48
839,732	2032,61
839,909	2247,65
840,085	1942,5
840,261	2214,88
840,437	2036,7
840,614	2372,57
840,79	2202,59
840,966	2382,81
841,142	2165,73
841,318	2653,14
841,494	2204,64
841,671	2276,32
841,847	2046,94
842,023	2257,89
842,199	1872,87
842,375	2092
842,551	1962,98
842,727	2003,94
842,903	1899,49
843,079	1911,78
843,255	1940,45
843,431	1948,64
843,607	1872,87
843,783	2085,86
843,959	2067,42
844,134	2034,66
844,31	1940,45
844,486	1711,08
844,662	1774,56
844,838	1741,8
845,013	1694,69
845,189	1610,73
845,365	1848,29
845,541	1813,48
845,716	1811,43
845,892	1733,61
846,068	1807,33
846,244	1895,4
846,419	1776,61
846,595	1879,01
846,77	1815,52
846,946	2003,94
847,122	1678,31
847,297	1661,93
847,473	1561,58
847,648	1647,59
847,824	1356,78
847,999	1606,63
848,175	1606,63
848,35	1727,46
848,526	1788,9
848,701	1797,09
848,876	1518,57
849,052	1620,97
849,227	1493,99
849,403	1623,02
849,578	1506,28
849,753	1659,88
849,929	1473,51
850,104	1453,03
850,279	1262,57
850,454	1387,5
850,63	1096,69
850,805	1201,13
850,98	1127,41
851,155	1211,37
851,33	1108,98
851,505	1315,82
851,681	1188,85
851,856	1342,44
852,031	1184,75
852,206	1041,39
852,381	996,34
852,556	1184,75
852,731	1164,27
852,906	1242,09
853,081	1111,02
853,256	1131,5
853,431	961,52
853,606	1201,13
853,781	1086,45
853,956	1389,55
854,131	1129,45
854,305	965,62
854,48	803,83
854,655	670,71
854,83	543,74
855,005	594,93
855,18	523,26
855,354	529,4
855,529	619,51
855,704	719,86
855,879	621,56
856,053	832,5
856,228	889,84
856,403	906,23
856,577	979,95
856,752	971,76
856,926	1004,53
857,101	1074,16
857,276	908,27
857,45	951,28
857,625	947,19
857,799	895,99
857,974	799,73
858,148	908,27
858,323	674,81
858,497	773,11
858,672	803,83
858,846	824,31
859,02	756,72
859,195	906,23
859,369	756,72
859,543	889,84
859,718	723,96
859,892	771,06
860,066	707,57
860,241	785,4
860,415	793,59
860,589	879,6
860,763	683
860,938	705,53
861,112	758,77
861,286	822,26
861,46	742,39
861,634	787,44
861,808	728,05
861,982	687,09
862,157	629,75
862,331	594,93
862,505	652,28
862,679	740,34
862,853	723,96
863,027	814,07
863,201	773,11
863,375	734,2
863,549	633,85
863,722	650,23
863,896	625,65
864,07	613,37
864,244	453,63
864,418	623,61
864,592	574,46
864,766	580,6
864,939	510,97
865,113	637,94
865,287	515,06
865,461	547,83
865,634	574,46
865,808	582,65
865,982	582,65
866,156	551,93
866,329	431,1
866,503	453,63
866,676	334,84
866,85	349,18
867,024	338,94
867,197	334,84
867,371	283,64
867,544	316,41
867,718	379,9
867,891	369,66
868,065	404,47
868,238	506,87
868,412	453,63
868,585	449,53
868,759	392,19
868,932	521,21
869,105	439,29
869,279	396,28
869,452	338,94
869,625	431,1
869,799	361,47
869,972	416,76
870,145	439,29
870,319	365,56
870,492	377,85
870,665	328,7
870,838	396,28
871,011	420,86
871,185	314,36
871,358	455,67
871,531	351,23
871,704	427
871,877	347,13
872,05	318,46
872,223	351,23
872,396	300,03
872,569	306,17
872,742	388,09
872,915	349,18
873,088	431,1
873,261	295,93
873,434	257,02
873,607	338,94
873,78	427
873,953	297,98
874,126	369,66
874,299	252,92
874,471	275,45
874,644	322,56
874,817	306,17
874,99	304,12
875,163	277,5
875,335	285,69
875,508	259,07
875,681	271,36
875,853	300,03
876,026	252,92
876,199	295,93
876,371	259,07
876,544	220,16
876,717	201,72
876,889	222,2
877,062	216,06
877,234	240,64
877,407	240,64
877,579	185,34
877,752	222,2
877,924	201,72
878,097	234,49
878,269	177,15
878,442	209,92
878,614	218,11
878,786	267,26
878,959	201,72
879,131	224,25
879,303	140,29
879,476	285,69
879,648	240,64
879,82	191,49
879,993	164,86
880,165	259,07
880,337	197,63
880,509	209,92
880,681	150,53
880,854	218,11
881,026	173,05
881,198	187,39
881,37	144,38
881,542	144,38
881,714	128
881,886	140,29
882,058	224,25
882,23	232,44
882,402	191,49
882,574	128
882,746	171,01
882,918	187,39
883,09	119,81
883,262	168,96
883,434	142,33
883,606	193,53
883,778	205,82
883,95	175,1
884,122	191,49
884,293	171,01
884,465	82,94
884,637	121,85
884,809	187,39
884,98	209,92
885,152	171,01
885,324	128
885,496	136,19
885,667	144,38
885,839	109,57
886,011	205,82
886,182	152,57
886,354	142,33
886,525	91,13
886,697	119,81
886,869	111,61
887,04	84,99
887,212	97,28
887,383	60,42
887,555	117,76
887,726	128
887,897	138,24
888,069	134,14
888,24	107,52
888,412	119,81
888,583	121,85
888,754	97,28
888,926	107,52
889,097	160,77
889,268	72,7
889,44	132,09
889,611	82,94
889,782	60,42
889,953	103,42
890,125	39,94
890,296	125,95
890,467	171,01
890,638	91,13
890,809	136,19
890,98	144,38
891,151	101,37
891,323	144,38
891,494	78,85
891,665	56,32
891,836	166,91
892,007	177,15
892,178	140,29
892,349	80,89
892,52	13,31
892,691	19,46
892,862	78,85
893,032	128
893,203	62,46
893,374	74,75
893,545	52,22
893,716	39,94
893,887	84,99
894,057	13,31
894,228	91,13
894,399	13,31
894,57	87,04
894,74	66,56
894,911	164,86
895,082	82,94
895,253	54,27
895,423	76,8
895,594	48,13
895,764	82,94
895,935	78,85
896,106	74,75
896,276	48,13
896,447	5,12
896,617	89,09
896,788	130,05
896,958	93,18
897,129	87,04
897,299	78,85
897,47	52,22
897,64	60,42
897,81	68,61
897,981	107,52
898,151	15,36
898,322	58,37
898,492	9,22
898,662	76,8
898,832	17,41
899,003	39,94
899,173	15,36
899,343	87,04
899,513	44,03
