Data from sun_USB4F104151__7__16-40-13-827.txt Node

Date: Thu Mar 07 16:40:13 EST 2024
User: lauri
Spectrometer: USB4F10415
Trigger mode: 4
Integration Time (sec): 2,000000E-3
Scans to average: 1
Electric dark correction enabled: true
Nonlinearity correction enabled: false
Boxcar width: 0
XAxis mode: Wavelengths
Number of Pixels in Spectrum: 3648
>>>>>Begin Spectral Data<<<<<
178,204	-45,23
178,424	-45,23
178,644	-45,23
178,864	-41,13
179,084	12,12
179,304	-69,8
179,524	46,93
179,744	32,6
179,964	5,97
180,184	-18,6
180,404	-26,79
180,624	48,98
180,844	-61,61
181,064	48,98
181,283	32,6
181,503	-12,46
181,723	-26,79
181,943	32,6
182,163	24,4
182,383	-4,27
182,602	34,64
182,822	-34,99
183,042	32,6
183,262	30,55
183,482	98,13
183,701	44,88
183,921	8,02
184,141	112,47
184,361	34,64
184,58	-28,84
184,8	-10,41
185,02	-75,95
185,239	73,56
185,459	20,31
185,679	32,6
185,898	71,51
186,118	14,17
186,338	81,75
186,557	34,64
186,777	22,36
186,997	28,5
187,216	22,36
187,436	-30,89
187,655	-49,32
187,875	89,94
188,095	-0,17
188,314	8,02
188,534	20,31
188,753	-34,99
188,973	38,74
189,192	-2,22
189,412	-10,41
189,631	24,4
189,851	8,02
190,07	16,21
190,29	-18,6
190,509	16,21
190,729	-63,66
190,948	3,93
191,168	69,46
191,387	3,93
191,607	57,17
191,826	51,03
192,045	-10,41
192,265	-20,65
192,484	-110,76
192,704	16,21
192,923	28,5
193,142	46,93
193,362	14,17
193,581	46,93
193,8	44,88
194,02	18,26
194,239	3,93
194,458	51,03
194,678	42,84
194,897	8,02
195,116	-28,84
195,335	32,6
195,555	-49,32
195,774	20,31
195,993	38,74
196,212	14,17
196,432	-18,6
196,651	24,4
196,87	46,93
197,089	26,45
197,308	38,74
197,528	24,4
197,747	5,97
197,966	73,56
198,185	30,55
198,404	-0,17
198,623	-53,42
198,842	22,36
199,062	-51,37
199,281	30,55
199,5	-8,36
199,719	53,08
199,938	-14,51
200,157	22,36
200,376	14,17
200,595	89,94
200,814	12,12
201,033	-18,6
201,252	18,26
201,471	10,07
201,69	98,13
201,909	16,21
202,128	98,13
202,347	65,36
202,566	24,4
202,785	5,97
203,004	-16,55
203,223	5,97
203,442	1,88
203,661	34,64
203,879	26,45
204,098	73,56
204,317	-49,32
204,536	-0,17
204,755	-0,17
204,974	98,13
205,193	-12,46
205,411	14,17
205,63	-0,17
205,849	63,32
206,068	12,12
206,287	-24,75
206,505	30,55
206,724	104,28
206,943	3,93
207,162	34,64
207,381	-41,13
207,599	57,17
207,818	46,93
208,037	-69,8
208,255	-30,89
208,474	36,69
208,693	65,36
208,911	14,17
209,13	-30,89
209,349	16,21
209,567	5,97
209,786	61,27
210,005	-39,08
210,223	73,56
210,442	-0,17
210,661	32,6
210,879	-18,6
211,098	-10,41
211,316	65,36
211,535	-24,75
211,753	-20,65
211,972	16,21
212,191	-12,46
212,409	32,6
212,628	-14,51
212,846	28,5
213,065	16,21
213,283	42,84
213,502	46,93
213,72	12,12
213,938	28,5
214,157	20,31
214,375	38,74
214,594	63,32
214,812	-30,89
215,031	22,36
215,249	77,65
215,467	-37,03
215,686	67,41
215,904	16,21
216,122	-43,18
216,341	18,26
216,559	-49,32
216,778	38,74
216,996	30,55
217,214	-28,84
217,432	38,74
217,651	57,17
217,869	79,7
218,087	12,12
218,306	1,88
218,524	40,79
218,742	42,84
218,96	30,55
219,179	-14,51
219,397	26,45
219,615	-10,41
219,833	69,46
220,051	-53,42
220,27	26,45
220,488	-39,08
220,706	16,21
220,924	8,02
221,142	5,97
221,36	-4,27
221,578	30,55
221,796	-4,27
222,015	-24,75
222,233	75,6
222,451	51,03
222,669	12,12
222,887	12,12
223,105	22,36
223,323	-49,32
223,541	48,98
223,759	-16,55
223,977	61,27
224,195	-0,17
224,413	-6,31
224,631	22,36
224,849	34,64
225,067	63,32
225,285	20,31
225,503	-45,23
225,721	12,12
225,939	-8,36
226,157	1,88
226,375	18,26
226,592	69,46
226,81	36,69
227,028	-14,51
227,246	42,84
227,464	3,93
227,682	40,79
227,9	81,75
228,117	48,98
228,335	24,4
228,553	112,47
228,771	-6,31
228,989	-28,84
229,206	-20,65
229,424	16,21
229,642	18,26
229,86	46,93
230,077	8,02
230,295	59,22
230,513	-65,71
230,731	28,5
230,948	40,79
231,166	38,74
231,384	24,4
231,601	26,45
231,819	24,4
232,037	61,27
232,254	44,88
232,472	-16,55
232,689	51,03
232,907	46,93
233,125	-10,41
233,342	16,21
233,56	3,93
233,777	1,88
233,995	63,32
234,213	57,17
234,43	-39,08
234,648	32,6
234,865	-4,27
235,083	16,21
235,3	-34,99
235,518	63,32
235,735	-4,27
235,953	-49,32
236,17	-6,31
236,388	61,27
236,605	-10,41
236,822	42,84
237,04	1,88
237,257	-10,41
237,475	18,26
237,692	-10,41
237,909	-4,27
238,127	-10,41
238,344	12,12
238,562	53,08
238,779	-41,13
238,996	-4,27
239,214	-22,7
239,431	48,98
239,648	44,88
239,865	61,27
240,083	32,6
240,3	48,98
240,517	-49,32
240,735	-30,89
240,952	-4,27
241,169	22,36
241,386	5,97
241,603	12,12
241,821	-51,37
242,038	-34,99
242,255	5,97
242,472	16,21
242,689	24,4
242,907	28,5
243,124	-22,7
243,341	20,31
243,558	-8,36
243,775	5,97
243,992	8,02
244,209	83,8
244,426	79,7
244,643	3,93
244,86	83,8
245,078	-10,41
245,295	32,6
245,512	16,21
245,729	-22,7
245,946	57,17
246,163	38,74
246,38	26,45
246,597	-10,41
246,814	-20,65
247,031	-49,32
247,248	34,64
247,464	48,98
247,681	65,36
247,898	3,93
248,115	-6,31
248,332	26,45
248,549	-26,79
248,766	53,08
248,983	14,17
249,2	-6,31
249,417	42,84
249,633	42,84
249,85	12,12
250,067	48,98
250,284	10,07
250,501	18,26
250,717	-12,46
250,934	1,88
251,151	18,26
251,368	24,4
251,585	-14,51
251,801	-2,22
252,018	42,84
252,235	-67,75
252,451	12,12
252,668	-53,42
252,885	51,03
253,102	18,26
253,318	-14,51
253,535	-32,94
253,752	30,55
253,968	-18,6
254,185	1,88
254,401	14,17
254,618	81,75
254,835	8,02
255,051	-12,46
255,268	14,17
255,484	16,21
255,701	77,65
255,917	-0,17
256,134	-12,46
256,351	-8,36
256,567	73,56
256,784	77,65
257	61,27
257,217	67,41
257,433	-12,46
257,65	-26,79
257,866	48,98
258,082	-20,65
258,299	38,74
258,515	59,22
258,732	26,45
258,948	30,55
259,165	8,02
259,381	28,5
259,597	-49,32
259,814	59,22
260,03	-4,27
260,246	-20,65
260,463	5,97
260,679	55,12
260,895	38,74
261,112	-49,32
261,328	-8,36
261,544	5,97
261,761	48,98
261,977	18,26
262,193	-2,22
262,409	-8,36
262,626	-43,18
262,842	57,17
263,058	61,27
263,274	-16,55
263,49	46,93
263,707	34,64
263,923	-16,55
264,139	20,31
264,355	-10,41
264,571	61,27
264,787	42,84
265,004	-6,31
265,22	-41,13
265,436	38,74
265,652	14,17
265,868	22,36
266,084	-4,27
266,3	46,93
266,516	26,45
266,732	57,17
266,948	12,12
267,164	-12,46
267,38	16,21
267,596	-30,89
267,812	38,74
268,028	12,12
268,244	24,4
268,46	-10,41
268,676	5,97
268,892	-2,22
269,108	-18,6
269,324	-14,51
269,54	5,97
269,756	16,21
269,972	-24,75
270,188	40,79
270,403	77,65
270,619	81,75
270,835	18,26
271,051	85,84
271,267	-6,31
271,483	24,4
271,698	34,64
271,914	-20,65
272,13	48,98
272,346	32,6
272,562	53,08
272,777	51,03
272,993	-10,41
273,209	-22,7
273,425	55,12
273,64	34,64
273,856	-16,55
274,072	12,12
274,287	12,12
274,503	30,55
274,719	-32,94
274,934	-16,55
275,15	20,31
275,366	3,93
275,581	3,93
275,797	18,26
276,012	55,12
276,228	14,17
276,444	65,36
276,659	-18,6
276,875	98,13
277,09	-16,55
277,306	53,08
277,521	67,41
277,737	77,65
277,952	24,4
278,168	20,31
278,383	-0,17
278,599	30,55
278,814	-16,55
279,03	-20,65
279,245	42,84
279,461	65,36
279,676	-10,41
279,892	3,93
280,107	61,27
280,322	-24,75
280,538	46,93
280,753	57,17
280,969	-10,41
281,184	44,88
281,399	67,41
281,615	73,56
281,83	1,88
282,045	30,55
282,26	8,02
282,476	5,97
282,691	-2,22
282,906	24,4
283,122	-24,75
283,337	-16,55
283,552	5,97
283,767	18,26
283,983	20,31
284,198	-2,22
284,413	16,21
284,628	-2,22
284,843	-2,22
285,058	-22,7
285,274	141,14
285,489	18,26
285,704	-2,22
285,919	3,93
286,134	55,12
286,349	118,61
286,564	-0,17
286,779	-0,17
286,995	40,79
287,21	26,45
287,425	32,6
287,64	-0,17
287,855	22,36
288,07	53,08
288,285	34,64
288,5	20,31
288,715	3,93
288,93	59,22
289,145	-98,47
289,36	-37,03
289,575	8,02
289,79	36,69
290,004	-12,46
290,219	57,17
290,434	26,45
290,649	48,98
290,864	59,22
291,079	-4,27
291,294	1,88
291,509	-2,22
291,724	46,93
291,938	-102,57
292,153	-16,55
292,368	-34,99
292,583	1,88
292,798	8,02
293,012	-43,18
293,227	48,98
293,442	63,32
293,657	63,32
293,871	34,64
294,086	-18,6
294,301	-6,31
294,516	65,36
294,73	22,36
294,945	20,31
295,16	10,07
295,374	-8,36
295,589	-12,46
295,804	46,93
296,018	22,36
296,233	5,97
296,447	71,51
296,662	-8,36
296,877	-16,55
297,091	16,21
297,306	-0,17
297,52	30,55
297,735	63,32
297,949	-39,08
298,164	-4,27
298,378	-32,94
298,593	-2,22
298,807	57,17
299,022	48,98
299,236	34,64
299,451	32,6
299,665	3,93
299,88	63,32
300,094	-10,41
300,309	96,08
300,523	8,02
300,737	32,6
300,952	-0,17
301,166	3,93
301,381	10,07
301,595	16,21
301,809	-10,41
302,024	-39,08
302,238	14,17
302,452	-8,36
302,667	-12,46
302,881	22,36
303,095	75,6
303,309	69,46
303,524	-34,99
303,738	1,88
303,952	-0,17
304,166	14,17
304,381	16,21
304,595	18,26
304,809	102,23
305,023	-8,36
305,237	61,27
305,452	24,4
305,666	-26,79
305,88	-12,46
306,094	-2,22
306,308	-2,22
306,522	20,31
306,736	30,55
306,95	38,74
307,164	-34,99
307,379	-14,51
307,593	8,02
307,807	24,4
308,021	-32,94
308,235	-16,55
308,449	46,93
308,663	30,55
308,877	16,21
309,091	-53,42
309,305	-26,79
309,519	-32,94
309,733	-2,22
309,947	14,17
310,161	-2,22
310,374	98,13
310,588	14,17
310,802	34,64
311,016	-8,36
311,23	20,31
311,444	-10,41
311,658	-26,79
311,872	22,36
312,085	44,88
312,299	30,55
312,513	-92,33
312,727	-8,36
312,941	10,07
313,154	34,64
313,368	59,22
313,582	10,07
313,796	-6,31
314,009	5,97
314,223	-37,03
314,437	32,6
314,651	18,26
314,864	1,88
315,078	-2,22
315,292	55,12
315,505	30,55
315,719	5,97
315,933	8,02
316,146	73,56
316,36	46,93
316,573	8,02
316,787	38,74
317,001	20,31
317,214	-18,6
317,428	57,17
317,641	24,4
317,855	-22,7
318,068	44,88
318,282	-6,31
318,495	-0,17
318,709	59,22
318,922	30,55
319,136	32,6
319,349	-24,75
319,563	32,6
319,776	-73,9
319,99	69,46
320,203	-18,6
320,417	79,7
320,63	57,17
320,843	24,4
321,057	-6,31
321,27	32,6
321,483	8,02
321,697	42,84
321,91	-16,55
322,124	71,51
322,337	-94,38
322,55	24,4
322,763	24,4
322,977	65,36
323,19	69,46
323,403	87,89
323,617	55,12
323,83	46,93
324,043	-16,55
324,256	-20,65
324,469	44,88
324,683	28,5
324,896	59,22
325,109	89,94
325,322	32,6
325,535	32,6
325,748	73,56
325,962	46,93
326,175	22,36
326,388	-20,65
326,601	42,84
326,814	20,31
327,027	1,88
327,24	40,79
327,453	-8,36
327,666	38,74
327,879	-0,17
328,092	46,93
328,305	8,02
328,518	3,93
328,731	-26,79
328,944	30,55
329,157	-8,36
329,37	63,32
329,583	-10,41
329,796	22,36
330,009	22,36
330,222	-2,22
330,435	5,97
330,648	3,93
330,861	34,64
331,073	34,64
331,286	-6,31
331,499	42,84
331,712	30,55
331,925	5,97
332,138	20,31
332,35	14,17
332,563	1,88
332,776	16,21
332,989	8,02
333,202	3,93
333,414	40,79
333,627	34,64
333,84	-18,6
334,053	3,93
334,265	-8,36
334,478	16,21
334,691	24,4
334,903	12,12
335,116	-6,31
335,329	30,55
335,541	-0,17
335,754	24,4
335,966	-71,85
336,179	85,84
336,392	-8,36
336,604	79,7
336,817	-10,41
337,029	-20,65
337,242	24,4
337,454	38,74
337,667	-2,22
337,88	46,93
338,092	32,6
338,305	44,88
338,517	65,36
338,729	24,4
338,942	-82,09
339,154	38,74
339,367	28,5
339,579	-98,47
339,792	16,21
340,004	-16,55
340,217	67,41
340,429	53,08
340,641	-2,22
340,854	1,88
341,066	34,64
341,278	65,36
341,491	24,4
341,703	32,6
341,915	34,64
342,128	30,55
342,34	57,17
342,552	36,69
342,764	79,7
342,977	-22,7
343,189	24,4
343,401	-10,41
343,613	-22,7
343,826	5,97
344,038	-37,03
344,25	42,84
344,462	-2,22
344,674	34,64
344,886	-4,27
345,099	89,94
345,311	85,84
345,523	73,56
345,735	40,79
345,947	38,74
346,159	38,74
346,371	12,12
346,583	22,36
346,795	-0,17
347,007	8,02
347,219	28,5
347,431	32,6
347,643	118,61
347,855	16,21
348,067	-22,7
348,279	110,42
348,491	46,93
348,703	-92,33
348,915	28,5
349,127	-2,22
349,339	34,64
349,551	44,88
349,763	-34,99
349,975	14,17
350,187	38,74
350,399	32,6
350,61	55,12
350,822	3,93
351,034	14,17
351,246	-82,09
351,458	40,79
351,669	-4,27
351,881	46,93
352,093	53,08
352,305	40,79
352,517	-10,41
352,728	36,69
352,94	118,61
353,152	36,69
353,363	38,74
353,575	-8,36
353,787	42,84
353,999	59,22
354,21	28,5
354,422	18,26
354,633	32,6
354,845	28,5
355,057	81,75
355,268	-39,08
355,48	22,36
355,692	-20,65
355,903	-41,13
356,115	53,08
356,326	59,22
356,538	71,51
356,749	53,08
356,961	132,95
357,172	-12,46
357,384	75,6
357,595	81,75
357,807	-26,79
358,018	1,88
358,23	20,31
358,441	42,84
358,653	36,69
358,864	36,69
359,075	3,93
359,287	69,46
359,498	57,17
359,709	8,02
359,921	106,32
360,132	3,93
360,344	34,64
360,555	10,07
360,766	44,88
360,977	94,04
361,189	20,31
361,4	-8,36
361,611	12,12
361,823	61,27
362,034	32,6
362,245	85,84
362,456	61,27
362,667	46,93
362,879	53,08
363,09	10,07
363,301	30,55
363,512	102,23
363,723	40,79
363,935	10,07
364,146	102,23
364,357	61,27
364,568	20,31
364,779	18,26
364,99	-20,65
365,201	20,31
365,412	87,89
365,623	65,36
365,834	61,27
366,045	-34,99
366,256	20,31
366,467	48,98
366,678	98,13
366,889	87,89
367,1	75,6
367,311	57,17
367,522	98,13
367,733	106,32
367,944	22,36
368,155	63,32
368,366	32,6
368,577	53,08
368,788	57,17
368,999	63,32
369,209	-16,55
369,42	46,93
369,631	51,03
369,842	110,42
370,053	98,13
370,264	38,74
370,474	104,28
370,685	55,12
370,896	91,99
371,107	38,74
371,317	36,69
371,528	128,85
371,739	57,17
371,95	114,52
372,16	57,17
372,371	14,17
372,582	14,17
372,792	79,7
373,003	96,08
373,214	26,45
373,424	124,76
373,635	63,32
373,846	112,47
374,056	85,84
374,267	98,13
374,477	42,84
374,688	126,8
374,898	130,9
375,109	81,75
375,319	122,71
375,53	110,42
375,74	114,52
375,951	40,79
376,161	24,4
376,372	116,56
376,582	143,19
376,793	75,6
377,003	89,94
377,214	36,69
377,424	110,42
377,635	96,08
377,845	128,85
378,055	104,28
378,266	130,9
378,476	51,03
378,686	167,76
378,897	73,56
379,107	46,93
379,317	96,08
379,528	38,74
379,738	118,61
379,948	94,04
380,158	46,93
380,369	102,23
380,579	42,84
380,789	71,51
380,999	69,46
381,21	51,03
381,42	36,69
381,63	30,55
381,84	98,13
382,05	73,56
382,261	159,57
382,471	63,32
382,681	55,12
382,891	79,7
383,101	106,32
383,311	108,37
383,521	46,93
383,731	87,89
383,941	81,75
384,151	165,71
384,361	106,32
384,571	120,66
384,781	137,04
384,991	173,91
385,201	145,24
385,411	173,91
385,621	65,36
385,831	104,28
386,041	155,47
386,251	94,04
386,461	145,24
386,671	196,43
386,881	124,76
387,091	120,66
387,301	143,19
387,511	165,71
387,72	180,05
387,93	196,43
388,14	173,91
388,35	251,73
388,56	178
388,769	266,07
388,979	313,17
389,189	284,5
389,399	270,16
389,609	335,7
389,818	282,45
390,028	175,95
390,238	196,43
390,447	196,43
390,657	237,39
390,867	167,76
391,076	155,47
391,286	157,52
391,496	118,61
391,705	128,85
391,915	112,47
392,125	38,74
392,334	122,71
392,544	132,95
392,753	161,62
392,963	231,25
393,172	173,91
393,382	333,65
393,591	268,11
393,801	286,54
394,01	268,11
394,22	216,91
394,429	169,81
394,639	98,13
394,848	188,24
395,058	204,63
395,267	163,67
395,477	139,09
395,686	266,07
395,895	341,84
396,105	319,31
396,314	438,09
396,524	372,56
396,733	485,2
396,942	679,75
397,152	835,4
397,361	653,13
397,57	907,08
397,78	788,3
397,989	1075,01
398,198	1097,54
398,407	1212,23
398,617	1115,97
398,826	1414,98
399,035	1185,6
399,244	1339,2
399,453	1204,03
399,663	1523,52
399,872	1439,55
400,081	1750,84
400,29	1482,56
400,499	1681,21
400,708	1318,72
400,917	1695,55
401,127	1578,81
401,336	1726,27
401,545	1609,53
401,754	1670,97
401,963	1738,55
402,172	1720,12
402,381	1564,48
402,59	1810,23
402,799	1683,26
403,008	1701,69
403,217	1634,11
403,426	1902,39
403,635	1726,27
403,844	1857,34
404,053	1623,87
404,262	1802,04
404,471	1578,81
404,68	1744,7
404,888	1675,07
405,097	1742,65
405,306	1785,66
405,515	1802,04
405,724	1687,36
405,933	2064,18
406,142	1773,37
406,35	2012,98
406,559	2164,53
406,768	2219,83
406,977	2060,09
407,185	2340,66
407,394	2109,24
407,603	2408,24
407,812	2064,18
408,02	2311,99
408,229	2027,32
408,438	2207,54
408,646	2074,42
408,855	2092,85
409,064	2232,12
409,272	2391,86
409,481	2549,55
409,69	2705,2
409,898	2656,04
410,107	2791,21
410,315	2520,88
410,524	2883,37
410,733	2645,8
410,941	2834,22
411,15	2817,83
411,358	2887,47
411,567	2889,51
411,775	3092,26
411,984	2920,23
412,192	3061,54
412,401	3104,55
412,609	3020,58
412,818	3254,05
413,026	3094,31
413,234	3045,16
413,443	3202,85
413,651	3045,16
413,86	3325,73
414,068	3047,21
414,276	3456,8
414,485	3221,28
414,693	3266,34
414,901	3276,58
415,11	3530,53
415,318	2944,81
415,526	3381,03
415,734	3170,08
415,943	3264,29
416,151	3198,76
416,359	3159,85
416,567	3012,39
416,776	3340,07
416,984	3272,48
417,192	3362,59
417,4	2981,67
417,608	3252
417,817	3186,47
418,025	3266,34
418,233	3192,61
418,441	3452,7
418,649	3413,79
418,857	3766,04
419,065	3477,28
419,273	3493,66
419,481	3403,55
419,689	3964,7
419,897	3686,17
420,105	3843,87
420,313	3430,18
420,521	3622,69
420,729	3288,87
420,937	3696,41
421,145	3378,98
421,353	3690,27
421,561	3417,89
421,769	3749,66
421,977	3770,14
422,185	3718,94
422,393	3626,78
422,601	3880,73
422,809	3591,97
423,017	3776,28
423,224	3714,84
423,432	3933,98
423,64	3628,83
423,848	4050,71
424,056	3563,29
424,263	3964,7
424,471	3983,13
424,679	3917,59
424,887	3854,11
425,094	4124,44
425,302	3821,34
425,51	3790,62
425,718	3675,93
425,925	3946,27
426,133	3858,2
426,341	4054,81
426,548	3911,45
426,756	4183,83
426,964	3624,73
427,171	4011,8
427,379	3737,37
427,586	3815,2
427,794	3608,35
428,001	3831,58
428,209	3495,71
428,417	3225,38
428,624	3096,36
428,832	3280,68
429,039	2877,23
429,247	3051,3
429,454	3139,37
429,662	3858,2
429,869	3473,18
430,076	4122,39
430,284	3665,69
430,491	4333,33
430,699	4306,71
430,906	4605,71
431,114	4228,88
431,321	4550,42
431,528	4550,42
431,736	5107,46
431,943	5414,66
432,15	4851,47
432,358	4910,86
432,565	5027,59
432,772	4722,45
432,979	5277,44
433,187	5066,5
433,394	5254,92
433,601	5539,58
433,808	5732,09
434,016	5375,75
434,223	5988,09
434,43	6362,87
434,637	6125,3
434,844	6457,07
435,052	6612,72
435,259	6151,93
435,466	6379,25
435,673	6053,62
435,88	6414,07
436,087	6303,48
436,294	6475,51
436,501	5771,01
436,708	5998,33
436,915	6004,47
437,122	6237,94
437,329	5857,02
437,537	6260,47
437,743	6108,92
437,95	6139,64
438,157	6354,68
438,364	6766,32
438,571	6432,5
438,778	6590,19
438,985	6936,3
439,192	6950,64
439,399	6786,8
439,606	6629,1
439,813	7028,46
440,02	7659,23
440,227	7167,72
440,433	7192,3
440,64	7552,74
440,847	7337,7
441,054	7407,33
441,261	8017,63
441,467	7536,35
441,674	7702,24
441,881	7661,28
442,088	8124,12
442,294	7556,83
442,501	7857,89
442,708	7648,99
442,914	8232,66
443,121	8208,09
443,328	8070,87
443,534	8150,74
443,741	8019,67
443,948	7605,99
444,154	8206,04
444,361	7845,6
444,568	7831,26
444,774	7438,05
444,981	7517,92
445,187	7640,8
445,394	8179,42
445,6	7933,66
445,807	9019,08
446,013	8175,32
446,22	8445,65
446,426	8709,84
446,633	8781,52
446,839	8810,19
447,046	8441,56
447,252	8986,32
447,459	8871,63
447,665	8490,71
447,871	9027,28
448,078	9297,61
448,284	8955,6
448,491	9037,52
448,697	9543,36
448,903	9543,36
449,11	9825,98
449,316	9387,72
449,522	9768,64
449,728	9639,62
449,935	9582,28
450,141	9662,15
450,347	9819,84
450,553	9176,78
450,76	9381,57
450,966	9510,6
451,172	9344,71
451,378	9385,67
451,584	9367,24
451,791	9281,22
451,997	9350,85
452,203	9369,29
452,409	9787,07
452,615	9557,7
452,821	9232,07
453,027	9031,37
453,233	9957,05
453,44	9359,05
453,646	9586,37
453,852	9629,38
454,058	10149,56
454,264	9813,7
454,47	10548,92
454,676	10180,28
454,882	11216,55
455,088	9932,48
455,294	10292,92
455,5	10507,96
455,705	10882,74
455,911	10452,66
456,117	10358,46
456,323	10571,44
456,529	10297,02
456,735	10704,56
456,941	10602,16
457,147	10489,53
457,352	10471,09
457,558	10182,33
457,764	10847,92
457,97	10886,83
458,176	11032,24
458,381	10794,67
458,587	10763,95
458,793	10968,75
458,999	10751,67
459,204	11835,04
459,41	12443,29
459,616	11384,49
459,821	12150,43
460,027	12218,01
460,233	12359,32
460,438	11873,95
460,644	12431
460,85	12193,44
461,055	12328,6
461,261	12549,78
461,466	11824,8
461,672	12002,97
461,878	12953,23
462,083	12191,39
462,289	12232,35
462,494	12074,65
462,7	12076,7
462,905	11751,07
463,111	12715,67
463,316	12697,24
463,522	12752,53
463,727	12879,5
463,932	13401,74
464,138	13526,66
464,343	13708,93
464,549	13235,85
464,754	14315,13
464,959	14151,29
465,165	14409,34
465,37	13700,74
465,575	13618,82
465,781	14282,36
465,986	14603,89
466,191	14136,96
466,397	14444,15
466,602	13850,24
466,807	14884,47
467,012	14651
467,218	14823,03
467,423	15113,84
467,628	15621,73
467,833	16576,09
468,038	15531,62
468,244	15482,47
468,449	15926,88
468,654	15879,78
468,859	15728,23
469,064	15894,11
469,269	15439,47
469,474	15957,6
469,679	16571,99
469,885	16485,98
470,09	16909,91
470,295	17069,65
470,5	17307,21
470,705	17495,63
470,91	17407,56
471,115	17409,61
471,32	18458,17
471,525	18032,19
471,73	18392,64
471,935	18359,87
472,139	18112,06
472,344	18458,17
472,549	19084,85
472,754	18986,55
472,959	19594,79
473,164	18929,2
473,369	18990,64
473,574	19734,06
473,778	19783,21
473,983	20100,64
474,188	20172,32
474,393	19523,12
474,598	20055,59
474,802	19725,86
475,007	20082,21
475,212	20407,84
475,417	20459,04
475,621	20133,41
475,826	20979,22
476,031	20985,37
476,235	21472,78
476,44	21775,88
476,645	21769,74
476,849	22001,16
477,054	22693,37
477,259	22580,73
477,463	22842,87
477,668	22722,04
477,872	23602,67
478,077	23524,85
478,282	23756,27
478,486	23647,72
478,691	24233,44
478,895	24227,3
479,1	24415,71
479,304	24677,85
479,509	24360,42
479,713	24921,56
479,918	25118,17
480,122	25370,07
480,326	25890,25
480,531	25949,64
480,735	26209,73
480,94	26463,68
481,144	27295,16
481,348	26027,46
481,553	26484,16
481,757	26183,11
481,961	27207,09
482,166	27078,07
482,37	27268,53
482,574	26451,39
482,778	27219,38
482,983	27401,65
483,187	27461,04
483,391	27626,93
483,595	26924,47
483,8	26359,24
484,004	26547,65
484,208	26242,5
484,412	25187,8
484,616	25087,45
484,821	25132,5
485,025	24479,2
485,229	25206,23
485,433	24708,57
485,637	25765,32
485,841	25544,14
486,045	26277,32
486,249	26303,94
486,453	27174,33
486,657	27166,13
486,861	28046,76
487,065	26975,67
487,269	27930,03
487,473	27692,46
487,677	28450,21
487,881	28945,82
488,085	29554,07
488,289	29513,11
488,493	30002,57
488,697	30147,98
488,901	30172,55
489,105	29797,77
489,309	30518,66
489,512	30242,18
489,716	30952,83
489,92	30520,71
490,124	29871,5
490,328	30496,13
490,531	30311,81
490,735	29939,08
490,939	30381,45
491,143	30305,67
491,346	30322,05
491,55	31354,23
491,754	31118,71
491,958	31262,07
492,161	31307,13
492,365	31483,25
492,569	31903,09
492,772	31520,12
492,976	32073,07
493,18	31966,57
493,383	32540
493,587	32701,79
493,79	32699,75
493,994	32288,1
494,197	33015,13
494,401	32740,71
494,605	32777,57
494,808	33355,1
495,012	33254,75
495,215	33070,43
495,419	33772,88
495,622	33230,17
495,825	33287,51
496,029	33586,52
496,232	33719,63
496,436	32789,86
496,639	32941,41
496,843	32726,37
497,046	33240,41
497,249	33045,85
497,453	32970,08
497,656	33019,23
497,859	32914,78
498,063	32828,77
498,266	33613,14
498,469	32695,65
498,673	32777,57
498,876	32800,1
499,079	32814,43
499,282	32187,75
499,485	32324,97
499,689	32032,11
499,892	32228,71
500,095	31675,76
500,298	32138,6
500,501	31593,84
500,705	32099,69
500,908	31974,77
501,111	32034,16
501,314	32073,07
501,517	32511,33
501,72	32595,3
501,923	32464,23
502,126	32068,97
502,329	32779,62
502,532	31888,75
502,735	31966,57
502,938	32357,74
503,141	32535,91
503,344	32195,95
503,547	32157,03
503,75	33058,14
503,953	33611,09
504,156	33283,42
504,359	33402,2
504,562	33793,36
504,765	34106,7
504,968	34035,02
505,17	34147,66
505,373	33551,7
505,576	33832,27
505,779	34116,94
505,982	33629,52
506,185	33776,98
506,387	33650
506,59	33361,24
506,793	34004,3
506,996	33361,24
507,198	34350,41
507,401	33625,43
507,604	34207,05
507,807	34276,68
508,009	34760
508,212	34377,03
508,415	34735,43
508,617	35087,68
508,82	34778,43
509,022	34176,33
509,225	35419,45
509,428	34618,69
509,63	35114,3
509,833	34921,79
510,035	35290,43
510,238	35196,22
510,44	36078,89
510,643	36076,85
510,845	35685,68
511,048	35337,53
511,25	35136,83
511,453	34858,31
511,655	36035,89
511,858	34889,02
512,06	35411,26
512,262	34829,63
512,465	35142,97
512,667	34751,81
512,87	35208,51
513,072	34901,31
513,274	35298,62
513,477	35124,54
513,679	35685,68
513,881	35468,6
514,084	36152,62
514,286	35120,45
514,488	35171,64
514,69	35984,69
514,893	35218,75
515,095	34448,71
515,297	34049,36
515,499	32947,55
515,701	33375,58
515,904	32585,06
516,106	32818,53
516,308	32671,07
516,51	33629,52
516,712	33099,1
516,914	33215,83
517,116	33578,32
517,318	33267,03
517,52	33318,23
517,722	33594,71
517,925	33682,77
518,127	34905,41
518,329	35204,41
518,531	34651,46
518,733	35896,63
518,935	36451,63
519,136	36246,83
519,338	36478,25
519,54	36480,3
519,742	36715,81
519,944	36648,23
520,146	37389,59
520,348	37551,38
520,55	38098,19
520,752	37674,26
520,954	38348,04
521,155	37127,45
521,357	37664,02
521,559	37754,13
521,761	37856,53
521,963	37481,75
522,164	37569,82
522,366	37874,96
522,568	39130,37
522,77	39027,97
522,971	39773,43
523,173	39140,61
523,375	39445,76
523,576	38722,82
523,778	39439,61
523,98	39781,62
524,181	39572,73
524,383	38681,86
524,584	38995,2
524,786	38067,47
524,988	37739,8
525,189	37141,79
525,391	37047,58
525,592	36277,55
525,794	36406,57
525,995	36072,75
526,197	37031,2
526,398	36359,47
526,6	37192,99
526,801	36883,75
527,003	37213,47
527,204	37317,92
527,406	38198,54
527,607	38317,32
527,808	38896,9
528,01	37973,27
528,211	38591,75
528,412	38864,13
528,614	38747,4
528,815	38128,91
529,016	38636,81
529,218	38411,53
529,419	38823,17
529,62	38610,18
529,822	38905,09
530,023	38530,31
530,224	38898,95
530,425	38104,34
530,626	38087,95
530,828	37745,94
531,029	37981,46
531,23	37313,82
531,431	37037,34
531,632	36898,08
531,833	36844,84
532,035	36406,57
532,236	36926,75
532,437	36691,24
532,638	36787,49
532,839	37121,31
533,04	37475,61
533,241	36375,85
533,442	37535
533,643	37338,4
533,844	37473,56
534,045	37578,01
534,246	37426,46
534,447	38085,9
534,648	37856,53
534,849	37704,98
535,05	37217,57
535,251	37182,75
535,451	36736,29
535,652	37256,48
535,853	36943,14
536,054	36810,02
536,255	36795,68
536,456	36429,1
536,657	37063,97
536,857	36683,05
537,058	36525,35
537,259	37119,26
537,46	37264,67
537,66	36590,89
537,861	36418,86
538,062	36236,59
538,263	36252,97
538,463	35491,13
538,664	35345,72
538,865	35353,91
539,065	35525,94
539,266	34344,27
539,466	35378,49
539,667	34516,29
539,868	35261,76
540,068	34473,29
540,269	34641,22
540,469	35155,26
540,67	34925,89
540,87	34690,37
541,071	35155,26
541,271	35337,53
541,472	35247,42
541,672	34864,45
541,873	35470,65
542,073	34639,17
542,274	34833,73
542,474	34833,73
542,675	35075,39
542,875	35454,26
543,075	35390,78
543,276	34590,02
543,476	35497,27
543,676	35067,2
543,877	35173,69
544,077	34905,41
544,277	34923,84
544,478	35298,62
544,678	35560,76
544,878	34850,11
545,078	35697,97
545,279	35091,77
545,479	35534,14
545,679	35149,12
545,879	34884,93
546,079	34886,98
546,28	35044,67
546,48	34039,12
546,68	34622,79
546,88	34573,64
547,08	34766,15
547,28	34512,2
547,48	34086,22
547,68	34882,88
547,88	34587,97
548,081	35439,93
548,281	34776,39
548,481	34831,68
548,681	35169,6
548,881	34463,05
549,081	34381,13
549,28	34049,36
549,48	35003,71
549,68	34465,1
549,88	34663,75
550,08	34067,79
550,28	34606,41
550,48	34217,29
550,68	34942,27
550,88	34065,74
551,08	34940,22
551,279	34207,05
551,479	34387,27
551,679	34571,59
551,879	34446,66
552,079	34401,61
552,278	34151,76
552,478	34438,47
552,678	34698,56
552,878	34784,58
553,077	34479,43
553,277	33955,15
553,477	34540,87
553,676	34551,11
553,876	34590,02
554,076	34702,66
554,275	34665,8
554,475	34571,59
554,674	34704,71
554,874	34256,2
555,074	34481,48
555,273	34223,44
555,473	34319,69
555,672	33701,2
555,872	34139,47
556,071	34014,54
556,271	34049,36
556,47	33748,31
556,67	33973,58
556,869	33543,51
557,068	33678,68
557,268	33103,2
557,467	32900,45
557,667	32554,34
557,866	32935,26
558,065	32816,48
558,265	32318,82
558,464	32099,69
558,663	32984,41
558,863	32044,4
559,062	33008,99
559,261	32787,81
559,461	33744,21
559,66	32949,6
559,859	33086,81
560,058	33088,86
560,258	33518,93
560,457	32998,75
560,656	33043,81
560,855	32546,15
561,054	33152,35
561,253	31915,37
561,453	32937,31
561,652	31952,24
561,851	32767,33
562,05	32628,07
562,249	32824,67
562,448	33146,2
562,647	32378,22
562,846	32394,6
563,045	32068,97
563,244	31950,19
563,443	32386,41
563,642	31610,23
563,841	32154,99
564,04	32001,39
564,239	32265,58
564,438	31817,07
564,637	32449,89
564,836	31722,87
565,035	31237,5
565,234	31622,51
565,432	31614,32
565,631	31102,33
565,83	31778,16
566,029	31878,51
566,228	31714,67
566,427	31907,18
566,625	31618,42
566,824	30907,77
567,023	31534,45
567,222	30668,16
567,42	31505,78
567,619	30553,48
567,818	30864,77
568,016	30680,45
568,215	30952,83
568,414	30545,28
568,612	30930,3
568,811	30791,04
569,01	31087,99
569,208	30182,79
569,407	30487,94
569,605	29775,25
569,804	30031,24
570,002	29506,96
570,201	29848,97
570,4	28906,91
570,598	29205,91
570,797	29248,92
570,995	29779,34
571,193	29705,62
571,392	30256,52
571,59	29171,1
571,789	29978
571,987	30074,25
572,186	29613,46
572,384	29379,99
572,582	29902,22
572,781	29730,19
572,979	29670,8
573,177	29580,69
573,376	29607,31
573,574	29126,04
573,772	29078,94
573,971	29126,04
574,169	29275,54
574,367	28831,13
574,565	28847,52
574,763	28566,95
574,962	29003,16
575,16	28454,31
575,358	28392,87
575,556	28624,29
575,754	28839,33
575,952	28368,29
576,151	29289,88
576,349	28302,76
576,547	29027,74
576,745	29152,66
576,943	28655,01
577,141	28589,47
577,339	28763,55
577,537	28386,72
577,735	28525,99
577,933	28290,47
578,131	28587,43
578,329	28452,26
578,527	28523,94
578,725	28642,72
578,923	28994,97
579,121	28878,24
579,319	29011,35
579,516	29306,26
579,714	29238,68
579,912	29060,51
580,11	29695,38
580,308	29726,1
580,506	30291,34
580,704	30293,38
580,901	30629,25
581,099	30430,6
581,297	30102,92
581,495	30180,74
581,692	31044,99
581,89	30616,96
582,088	31008,12
582,285	30635,39
582,483	30934,4
582,681	31579,51
582,878	31327,61
583,076	30954,88
583,274	31454,58
583,471	31126,91
583,669	31042,94
583,866	30946,69
584,064	31438,2
584,262	30702,98
584,459	30993,79
584,657	30698,88
584,854	30717,31
585,052	30500,23
585,249	30995,84
585,447	30946,69
585,644	31307,13
585,841	30866,81
586,039	31720,82
586,236	30991,74
586,434	30971,26
586,631	30946,69
586,828	31221,11
587,026	30938,49
587,223	30647,68
587,42	30014,86
587,618	29568,4
587,815	28554,66
588,012	28251,56
588,21	28067,24
588,407	28181,93
588,604	27401,65
588,801	27237,81
588,999	27344,31
589,196	27577,78
589,393	28386,72
589,59	28650,91
589,787	28626,34
589,984	28865,95
590,182	28419,49
590,379	28718,5
590,576	28226,98
590,773	28777,89
590,97	28083,62
591,167	28638,62
591,364	28011,95
591,561	29207,96
591,758	28374,44
591,955	28822,94
592,152	28980,64
592,349	29033,88
592,546	28954,01
592,743	29005,21
592,94	28605,86
593,137	28908,96
593,334	28650,91
593,531	28589,47
593,727	28464,55
593,924	28779,93
594,121	28169,64
594,318	28562,85
594,515	28145,06
594,712	28994,97
594,908	28517,79
595,105	28775,84
595,302	27946,41
595,499	28425,64
595,696	28317,09
595,892	28775,84
596,089	28612
596,286	28577,19
596,482	28329,38
596,679	28394,92
596,876	28382,63
597,072	27884,97
597,269	27985,32
597,466	28179,88
597,662	27907,5
597,859	28165,54
598,055	28079,53
598,252	28288,42
598,448	27475,38
598,645	28153,26
598,841	27934,12
599,038	27604,4
599,234	27700,65
599,431	27694,51
599,627	27788,72
599,824	27964,84
600,02	27719,09
600,217	27776,43
600,413	27624,88
600,609	27366,84
600,806	27205,05
601,002	27952,55
601,198	27168,18
601,395	27268,53
601,591	26965,43
601,787	27536,82
601,984	26983,87
602,18	27563,44
602,376	27188,66
602,572	28313
602,769	28067,24
602,965	27590,06
603,161	28474,79
603,357	28059,05
603,553	27764,14
603,75	28345,76
603,946	27850,16
604,142	28423,59
604,338	27745,71
604,534	28079,53
604,73	27235,77
604,926	27641,26
605,122	27913,64
605,318	28282,28
605,514	27704,75
605,71	28143,02
605,906	28097,96
606,102	28194,22
606,298	27817,39
606,494	28396,96
606,69	28136,87
606,886	28618,14
607,082	28040,62
607,278	28716,45
607,474	28237,22
607,67	28534,18
607,866	28112,3
608,062	28652,96
608,257	27862,44
608,453	28251,56
608,649	28272,04
608,845	28190,12
609,041	27551,15
609,236	28149,16
609,432	27874,73
609,628	28204,45
609,824	28323,24
610,019	28208,55
610,215	28108,2
610,411	28327,33
610,606	28024,23
610,802	28579,23
610,998	28636,58
611,193	29013,4
611,389	28181,93
611,584	28304,81
611,78	28362,15
611,976	29453,72
612,171	29480,34
612,367	29189,53
612,562	28937,63
612,758	29019,55
612,953	28831,13
613,149	29164,95
613,344	28921,24
613,539	29539,73
613,735	29205,91
613,93	29795,73
614,126	29670,8
614,321	29699,47
614,517	29031,83
614,712	29369,75
614,907	29191,58
615,103	29177,24
615,298	28843,42
615,493	29193,62
615,688	28554,66
615,884	29793,68
616,079	28784,03
616,274	29277,59
616,47	29410,71
616,665	29646,22
616,86	29621,65
617,055	29908,36
617,25	30227,85
617,445	30627,2
617,641	30475,65
617,836	30786,94
618,031	29887,89
618,226	30164,36
618,421	30315,91
618,616	30619,01
618,811	30326,15
619,006	31141,24
619,201	29857,17
619,396	31341,94
619,591	30209,42
619,786	30705,02
619,981	30590,34
620,176	30885,25
620,371	30700,93
620,566	31395,19
620,761	30557,57
620,956	30743,94
621,151	29914,51
621,346	30320,01
621,541	30039,43
621,735	30571,91
621,93	29984,14
622,125	30717,31
622,32	29988,24
622,515	29988,24
622,709	28761,5
622,904	29408,66
623,099	29511,06
623,294	29441,43
623,488	28634,53
623,683	28927,39
623,878	28208,55
624,072	28816,8
624,267	28235,17
624,462	28882,33
624,656	27813,29
624,851	27960,75
625,046	27536,82
625,24	27882,92
625,435	27819,44
625,629	28175,78
625,824	27874,73
626,018	28362,15
626,213	27295,16
626,407	27962,79
626,602	26836,41
626,796	27055,54
626,991	26140,1
627,185	26133,96
627,38	25646,54
627,574	25320,91
627,768	24911,32
627,963	25839,05
628,157	25058,77
628,352	25791,95
628,546	24942,04
628,74	25814,48
628,935	25095,64
629,129	25325,01
629,323	24876,51
629,517	24860,12
629,712	24827,35
629,906	24573,41
630,1	24450,53
630,294	25075,16
630,489	25390,55
630,683	25564,62
630,877	25333,2
631,071	25419,22
631,265	25232,85
631,459	25837
631,653	25466,32
631,848	25730,51
632,042	25861,58
632,236	25695,69
632,43	25843,15
632,624	26035,66
632,818	26066,38
633,012	25691,6
633,206	25777,61
633,4	26482,11
633,594	26093
633,788	26387,91
633,982	26430,91
634,176	26455,49
634,369	25996,74
634,563	26256,84
634,757	26254,79
634,951	27219,38
635,145	26691,01
635,339	26969,53
635,533	26736,06
635,726	26668,48
635,92	26224,07
636,114	27135,42
636,308	26248,64
636,501	27119,03
636,695	27030,97
636,889	27137,46
637,083	27014,59
637,276	26858,94
637,47	27420,08
637,664	27309,49
637,857	27526,58
638,051	27880,88
638,244	27356,6
638,438	27129,27
638,632	26435,01
638,825	26506,69
639,019	26553,79
639,212	26703,29
639,406	26883,52
639,599	26643,9
639,793	26740,16
639,986	26033,61
640,18	26484,16
640,373	26852,8
640,567	26508,74
640,76	26375,62
640,954	26318,28
641,147	26473,92
641,34	26580,42
641,534	26799,55
641,727	26244,55
641,92	26666,43
642,114	26516,93
642,307	27303,35
642,5	27067,83
642,694	26314,18
642,887	26164,68
643,08	26693,05
643,273	26234,31
643,467	26371,52
643,66	26269,12
643,853	26844,6
644,046	26330,56
644,239	26869,18
644,432	26373,57
644,626	26049,99
644,819	25763,28
645,012	25728,46
645,205	26133,96
645,398	26254,79
645,591	25890,25
645,784	26316,23
645,977	25742,8
646,17	25826,76
646,363	25617,87
646,556	25482,7
646,749	25114,07
646,942	25529,81
647,135	24989,14
647,328	24858,07
647,521	24677,85
647,714	24614,37
647,907	24870,36
648,099	25148,89
648,292	25046,49
648,485	25069,01
648,678	24425,95
648,871	24772,06
649,064	24305,12
649,256	24964,57
649,449	24505,82
649,642	24995,29
649,835	24387,04
650,027	25277,91
650,22	24839,64
650,413	24751,58
650,605	24915,42
650,798	24724,96
650,991	24264,16
651,183	24858,07
651,376	24077,8
651,568	24526,3
651,761	24376,8
651,954	24802,78
652,146	24499,68
652,339	25036,25
652,531	25089,49
652,724	24980,95
652,916	24964,57
653,109	25146,84
653,301	24763,87
653,494	25232,85
653,686	24993,24
653,879	25214,42
654,071	24514,02
654,263	24505,82
654,456	24327,65
654,648	24088,04
654,84	23606,77
655,033	23645,68
655,225	22889,98
655,417	22359,55
655,61	21532,17
655,802	21044,76
655,994	20530,72
656,186	21192,21
656,379	21255,7
656,571	22142,47
656,763	22289,92
656,955	22617,6
657,148	22912,5
657,34	23365,1
657,532	22992,37
657,724	23082,49
657,916	23262,71
658,108	23688,68
658,3	23574
658,492	24110,57
658,684	23805,42
658,876	24116,71
659,068	24251,88
659,26	24442,34
659,452	24620,51
659,644	24911,32
659,836	24450,53
660,028	24772,06
660,22	24221,16
660,412	25232,85
660,604	24204,77
660,796	24937,94
660,988	24286,69
661,18	24245,73
661,372	24559,07
661,563	24483,3
661,755	24018,41
661,947	24800,73
662,139	24892,89
662,331	24622,56
662,522	24331,75
662,714	24444,38
662,906	24477,15
663,097	24296,93
663,289	24090,09
663,481	24638,94
663,673	24378,85
663,864	24450,53
664,056	24094,18
664,247	24645,09
664,439	23909,86
664,631	24237,54
664,822	24473,06
665,014	24868,31
665,205	24610,27
665,397	24628,7
665,588	24182,24
665,78	23768,55
665,971	23725,55
666,163	23926,25
666,354	23506,41
666,546	24178,15
666,737	23930,34
666,929	24454,62
667,12	23965,16
667,311	23942,63
667,503	23961,06
667,694	24147,43
667,885	23848,43
668,077	23916,01
668,268	23657,96
668,459	24100,33
668,651	23481,84
668,842	23823,85
669,033	23338,48
669,224	23680,49
669,416	23660,01
669,607	23688,68
669,798	23602,67
669,989	23696,88
670,18	23594,48
670,371	23098,87
670,563	23541,23
670,754	23784,94
670,945	23473,65
671,136	24145,38
671,327	23903,72
671,518	23547,37
671,709	23330,29
671,9	23557,61
672,091	23479,79
672,282	23475,7
672,473	23270,9
672,664	23594,48
672,855	23008,76
673,046	23270,9
673,237	23143,92
673,428	23207,41
673,619	23485,93
673,809	23270,9
674	22593,02
674,191	23197,17
674,382	22390,27
674,573	22685,18
674,764	22603,26
674,954	23201,27
675,145	22971,89
675,336	23088,63
675,527	23393,78
675,717	23664,11
675,908	22859,26
676,099	23199,22
676,289	22920,7
676,48	23029,24
676,671	22750,71
676,861	22683,13
677,052	22263,3
677,243	22132,23
677,433	22015,49
677,624	22353,41
677,814	22001,16
678,005	22695,42
678,195	22306,3
678,386	22445,57
678,576	21919,24
678,767	22203,91
678,957	22593,02
679,148	22611,45
679,338	22251,01
679,529	22439,42
679,719	22011,4
679,909	22734,33
680,1	22060,55
680,29	22572,54
680,481	22580,73
680,671	22517,25
680,861	22052,36
681,052	22050,31
681,242	22134,28
681,432	22418,94
681,622	22144,52
681,813	21990,92
682,003	21976,58
682,193	22801,91
682,383	22574,59
682,573	22314,5
682,764	21818,89
682,954	22339,07
683,144	21831,18
683,334	22095,36
683,524	22398,46
683,714	22130,18
683,904	21990,92
684,094	22005,25
684,284	22025,73
684,474	22564,35
684,664	22201,86
684,854	22296,07
685,044	22003,21
685,234	21693,96
685,424	22033,93
685,614	21814,79
685,804	20979,22
685,994	20575,77
686,184	19609,13
686,374	18206,27
686,564	16393,82
686,753	14696,05
686,943	13225,61
687,133	12687
687,323	12242,59
687,513	12672,66
687,702	13010,57
687,892	13631,11
688,082	13559,43
688,272	14042,75
688,461	13737,6
688,651	13682,31
688,841	13039,25
689,03	13223,56
689,22	13205,13
689,41	13649,54
689,599	13497,99
689,789	13885,06
689,979	14055,04
690,168	14448,25
690,358	14612,09
690,547	15302,25
690,737	15578,73
690,926	16098,91
691,116	15292,01
691,305	16125,54
691,495	16342,62
691,684	16893,52
691,874	17217,1
692,063	17632,84
692,252	17561,16
692,442	17870,4
692,631	17774,15
692,82	17884,74
693,01	17872,45
693,199	18212,42
693,388	17643,08
693,578	17917,51
693,767	17604,17
693,956	17901,12
694,146	17628,74
694,335	17849,92
694,524	17694,28
694,713	18087,49
694,902	17925,7
695,092	18091,59
695,281	18116,16
695,47	18378,3
695,659	18361,92
695,848	18683,45
696,037	18886,2
696,226	19113,52
696,415	18986,55
696,604	19639,85
696,793	19013,17
696,982	18984,5
697,171	19195,44
697,36	19709,48
697,549	19209,78
697,738	19322,41
697,927	18730,55
698,116	19324,46
698,305	19121,71
698,494	19303,98
698,683	19013,17
698,872	19033,65
699,061	18579
699,25	18806,33
699,438	18554,43
699,627	19064,37
699,816	18478,65
700,005	18818,61
700,193	18593,34
700,382	18501,18
700,571	18062,91
700,76	18306,62
700,948	18480,7
701,137	18722,36
701,326	18099,78
701,514	18349,63
701,703	17878,6
701,892	17980,99
702,08	17835,59
702,269	18343,49
702,457	18083,39
702,646	18533,95
702,834	18533,95
703,023	18433,6
703,212	18468,41
703,4	18828,85
703,589	18196,03
703,777	18744,89
703,965	18208,32
704,154	18992,69
704,342	18906,68
704,531	18904,63
704,719	18478,65
704,907	18839,09
705,096	18218,56
705,284	18683,45
705,472	17923,65
705,661	18538,04
705,849	18775,61
706,037	18054,72
706,226	17919,56
706,414	17948,23
706,602	18017,86
706,79	18781,75
706,979	18519,61
707,167	18869,81
707,355	18798,13
707,543	18777,65
707,731	18382,4
707,919	18642,49
708,107	17663,56
708,296	17817,16
708,484	17700,42
708,672	18089,54
708,86	18351,68
709,048	18409,02
709,236	18538,04
709,424	18384,44
709,612	18169,41
709,8	18056,77
709,988	17634,89
710,176	17774,15
710,364	17571,4
710,551	18105,92
710,739	17835,59
710,927	17929,8
711,115	17751,62
711,303	17616,46
711,491	17487,43
711,679	17745,48
711,866	17419,85
712,054	17958,47
712,242	17612,36
712,43	18069,06
712,617	17155,66
712,805	17423,95
712,993	17905,22
713,181	17493,58
713,368	17231,44
713,556	17679,94
713,744	16928,34
713,931	17520,2
714,119	17165,9
714,306	17655,37
714,494	17219,15
714,682	17180,24
714,869	16989,78
715,057	17223,25
715,244	17151,57
715,432	17485,39
715,619	16571,99
715,807	17002,07
715,994	16774,74
716,182	16412,25
716,369	15758,95
716,556	15715,94
716,744	14904,95
716,931	14792,31
717,119	14075,52
717,306	13850,24
717,493	13604,49
717,681	13616,77
717,868	12934,8
718,055	12840,59
718,242	12512,92
718,43	12379,8
718,617	11628,2
718,804	11626,15
718,991	11171,5
719,179	11400,87
719,366	11232,94
719,553	11486,89
719,74	10927,79
719,927	11441,83
720,114	10827,44
720,301	11153,07
720,488	11105,96
720,676	11703,97
720,863	11785,89
721,05	12486,29
721,237	12572,31
721,424	13360,78
721,611	13358,73
721,798	13387,4
721,985	13258,38
722,172	13569,67
722,358	13295,24
722,545	13717,12
722,732	13061,77
722,919	13387,4
723,106	12920,46
723,293	13188,75
723,48	12557,97
723,667	12197,53
723,853	11835,04
724,04	12416,66
724,227	12252,83
724,414	12146,33
724,6	11849,38
724,787	12009,12
724,974	11779,75
725,161	12222,11
725,347	11714,21
725,534	12005,02
725,72	11787,94
725,907	12002,97
726,094	11611,81
726,28	11777,7
726,467	11826,85
726,653	12164,76
726,84	11589,28
727,027	11970,21
727,213	11638,44
727,4	12115,61
727,586	11488,93
727,773	11740,83
727,959	11587,24
728,145	11757,22
728,332	11931,3
728,518	12236,44
728,705	11769,51
728,891	11378,34
729,077	11282,09
729,264	11751,07
729,45	11376,3
729,636	12158,62
729,823	11529,89
730,009	12127,9
730,195	11624,1
730,382	11853,47
730,568	11622,05
730,754	11767,46
730,94	11486,89
731,126	11769,51
731,313	11540,13
731,499	11970,21
731,685	11978,4
731,871	12375,7
732,057	12590,74
732,243	12699,28
732,429	12463,77
732,615	12570,26
732,801	12633,75
732,987	12650,13
733,173	12795,54
733,359	13512,33
733,545	12881,55
733,731	13094,54
733,917	12904,08
734,103	13522,57
734,289	13012,62
734,475	13360,78
734,661	13248,14
734,847	13579,91
735,033	13207,18
735,219	13217,42
735,404	13285
735,59	13305,48
735,776	12828,31
735,962	13026,96
736,148	13012,62
736,333	13229,71
736,519	12996,24
736,705	13033,1
736,89	12719,76
737,076	13102,73
737,262	13076,11
737,447	13418,12
737,633	13323,91
737,819	13608,58
738,004	13043,34
738,19	13280,91
738,375	12764,82
738,561	13280,91
738,747	13076,11
738,932	13110,93
739,118	12594,84
739,303	13129,36
739,489	12762,77
739,674	12773,01
739,859	12756,63
740,045	13381,26
740,23	12961,42
740,416	12986
740,601	12820,11
740,786	13137,55
740,972	12899,98
741,157	13297,29
741,342	12848,79
741,528	13002,38
741,713	12736,15
741,898	12930,7
742,084	12334,75
742,269	12910,22
742,454	12183,2
742,639	12799,63
742,824	12385,94
743,01	13186,7
743,195	12834,45
743,38	13248,14
743,565	12893,84
743,75	12613,27
743,935	12922,51
744,12	13246,09
744,305	12381,85
744,49	12535,45
744,675	12060,32
744,86	12469,91
745,045	12566,17
745,23	12748,43
745,415	12576,41
745,6	12904,08
745,785	12914,32
745,97	13039,25
746,155	12697,24
746,34	12623,51
746,525	12332,7
746,71	12594,84
746,895	11841,18
747,079	12263,07
747,264	12000,93
747,449	12392,09
747,634	12175
747,819	12414,62
748,003	12172,96
748,188	12291,74
748,373	12158,62
748,557	12394,14
748,742	12273,31
748,927	12301,98
749,111	12179,1
749,296	12201,63
749,481	12009,12
749,665	11900,58
749,85	11656,87
750,034	11974,3
750,219	11699,87
750,404	11927,2
750,588	11749,03
750,773	11910,82
750,957	11468,45
751,141	11939,49
751,326	11656,87
751,51	11943,58
751,695	11796,13
751,879	11695,78
752,064	11501,22
752,248	11611,81
752,432	11546,28
752,617	11579,04
752,801	11216,55
752,985	11523,75
753,17	11165,35
753,354	11441,83
753,538	11114,16
753,722	11630,24
753,907	11478,69
754,091	11697,83
754,275	11290,28
754,459	11693,73
754,643	11249,32
754,828	11386,54
755,012	11038,38
755,196	11437,73
755,38	11032,24
755,564	11409,06
755,748	11210,41
755,932	11595,43
756,116	11079,34
756,3	11214,51
756,484	10770,1
756,668	10770,1
756,852	10649,27
757,036	10833,58
757,22	10350,26
757,404	10495,67
757,588	10272,44
757,772	10878,64
757,956	10653,36
758,14	10739,38
758,323	10714,8
758,507	10634,93
758,691	10286,78
758,875	9946,81
759,059	9443,01
759,242	8812,24
759,426	7689,95
759,61	6735,6
759,794	5340,93
759,977	4155,16
760,161	2699,05
760,345	1840,95
760,528	1023,81
760,712	796,49
760,895	370,51
761,079	350,03
761,263	278,35
761,446	253,78
761,63	415,57
761,813	444,24
761,997	526,16
762,18	575,31
762,364	477,01
762,547	417,61
762,731	175,95
762,914	194,39
763,098	175,95
763,281	139,09
763,464	135
763,648	135
763,831	161,62
764,015	94,04
764,198	171,86
764,381	178
764,564	247,63
764,748	421,71
764,931	472,91
765,114	778,06
765,297	868,17
765,481	1376,06
765,664	1562,43
765,847	2268,98
766,03	2682,67
766,213	2996,01
766,397	3348,26
766,58	3999,51
766,763	4288,28
766,946	4892,43
767,129	5314,31
767,312	5920,51
767,495	6254,33
767,678	6985,45
767,861	7071,47
768,044	7749,34
768,227	8156,89
768,41	8494,8
768,593	9072,33
768,776	9342,66
768,959	9082,57
769,142	9553,6
769,324	9535,17
769,507	9797,31
769,69	9803,46
769,873	10182,33
770,056	10190,52
770,239	10526,39
770,421	10342,07
770,604	10872,5
770,787	10827,44
770,97	11050,67
771,152	11073,2
771,335	11329,19
771,518	10999,47
771,7	10991,28
771,883	10884,78
772,066	11091,63
772,248	11564,71
772,431	12011,17
772,613	11812,51
772,796	12021,41
772,978	12035,74
773,161	12342,94
773,343	11992,73
773,526	11919,01
773,708	11818,66
773,891	12181,15
774,073	11880,1
774,256	12181,15
774,438	11882,14
774,621	12052,13
774,803	11703,97
774,985	11740,83
775,168	11171,5
775,35	11230,89
775,532	11316,9
775,715	11775,65
775,897	11759,27
776,079	11908,77
776,261	11718,31
776,444	12367,51
776,626	12304,03
776,808	12138,14
776,99	12205,72
777,173	12447,38
777,355	11624,1
777,537	11968,16
777,719	11624,1
777,901	12074,65
778,083	11540,13
778,265	11779,75
778,447	11638,44
778,629	11939,49
778,811	11456,17
778,993	11749,03
779,175	11810,47
779,357	11923,1
779,539	11261,61
779,721	11566,76
779,903	11028,14
780,085	11273,9
780,267	11118,25
780,449	11513,51
780,631	11099,82
780,812	11433,64
780,994	11200,17
781,176	11697,83
781,358	11212,46
781,54	11353,77
781,721	11185,83
781,903	11402,92
782,085	11273,9
782,267	11425,45
782,448	10991,28
782,63	11294,38
782,812	10766
782,993	10843,82
783,175	10612,4
783,357	10755,76
783,538	10620,6
783,72	10923,69
783,901	9858,75
784,083	10047,16
784,264	9891,52
784,446	9899,71
784,627	9471,68
784,809	10213,05
784,99	10059,45
785,172	10100,41
785,353	9754,3
785,535	10368,7
785,716	9846,46
785,897	9862,85
786,079	9787,07
786,26	10294,97
786,441	9928,38
786,623	10180,28
786,804	9395,91
786,985	9643,71
787,167	9727,68
787,348	9432,77
787,529	9211,59
787,71	9031,37
787,891	8986,32
788,073	9508,55
788,254	9238,22
788,435	9240,26
788,616	9033,42
788,797	9103,05
788,978	9103,05
789,159	9219,78
789,34	8967,88
789,522	8924,88
789,703	8568,53
789,884	8748,75
790,065	8519,38
790,246	8851,15
790,427	8515,28
790,607	8537,81
790,788	8165,08
790,969	8599,25
791,15	8218,33
791,331	8249,05
791,512	7904,99
791,693	8367,83
791,874	8326,87
792,054	8195,8
792,235	7853,79
792,416	8122,07
792,597	7876,32
792,778	7929,56
792,958	7900,89
793,139	8253,14
793,32	8021,72
793,5	8376,02
793,681	7855,84
793,862	7888,6
794,042	7868,13
794,223	8175,32
794,404	7534,31
794,584	7859,93
794,765	7511,78
794,945	7569,12
795,126	7550,69
795,306	7849,69
795,487	7460,58
795,667	7552,74
795,848	7050,99
796,028	7386,85
796,209	7648,99
796,389	7530,21
796,57	7085,8
796,75	7112,42
796,93	6833,9
797,111	6956,78
797,291	6715,12
797,471	7263,97
797,652	7059,18
797,832	7452,39
798,012	7149,29
798,192	7169,77
798,373	7270,12
798,553	7411,43
798,733	6987,5
798,913	6938,35
799,093	6960,88
799,274	7081,71
799,454	6770,41
799,634	6989,55
799,814	6872,81
799,994	7108,33
800,174	6794,99
800,354	6700,78
800,534	6434,55
800,714	6616,82
800,894	6782,7
801,074	6764,27
801,254	6547,19
801,434	6620,91
801,614	6321,91
801,794	6336,24
801,974	6192,89
802,154	6483,7
802,334	6174,46
802,514	6485,75
802,693	6186,74
802,873	6364,92
803,053	6313,72
803,233	6287,09
803,413	6311,67
803,592	6366,96
803,772	6350,58
803,952	6743,79
804,131	6356,72
804,311	6323,96
804,491	6272,76
804,67	6153,98
804,85	5697,28
805,03	5922,55
805,209	5824,25
805,389	6029,05
805,568	5924,6
805,748	6133,5
805,928	5908,22
806,107	6483,7
806,287	5938,94
806,466	6045,43
806,646	5945,08
806,825	6133,5
807,004	5863,16
807,184	5971,71
807,363	5961,47
807,543	6063,86
807,722	5807,87
807,901	5834,49
808,081	5701,37
808,26	5799,68
808,439	5662,46
808,619	5971,71
808,798	5760,77
808,977	5732,09
809,156	5564,16
809,336	5775,1
809,515	5428,99
809,694	5611,26
809,873	5445,38
810,052	5455,62
810,231	5279,49
810,411	5578,5
810,59	5218,05
810,769	5572,35
810,948	4994,83
811,127	5236,49
811,306	5181,19
811,485	5218,05
811,664	4937,48
811,843	5220,1
812,022	5031,69
812,201	5019,4
812,38	4837,13
812,559	4984,59
812,737	4613,9
812,916	4962,06
813,095	4460,31
813,274	4749,07
813,453	4425,49
813,632	4595,47
813,811	3923,74
813,989	3923,74
814,168	3559,2
814,347	3993,37
814,526	3942,17
814,704	4067,1
814,883	3512,1
815,062	3659,55
815,24	3374,88
815,419	3358,5
815,598	3100,45
815,776	3178,28
815,955	2989,86
816,133	3174,18
816,312	2905,9
816,49	2826,03
816,669	2545,45
816,847	2854,7
817,026	2690,86
817,204	2731,82
817,383	2692,91
817,561	2805,55
817,74	2529,07
817,918	2813,74
818,097	2539,31
818,275	2740,01
818,453	2408,24
818,632	2516,78
818,81	2400,05
818,988	2699,05
819,167	2373,43
819,345	2660,14
819,523	2481,97
819,701	2805,55
819,879	2719,53
820,058	2797,35
820,236	2506,54
820,414	2701,1
820,592	2703,15
820,77	3034,92
820,948	3223,33
821,127	3151,65
821,305	3118,89
821,483	3194,66
821,661	3049,25
821,839	3393,31
822,017	2887,47
822,195	3252
822,373	2928,42
822,551	3047,21
822,729	2760,49
822,907	2676,52
823,085	2217,78
823,262	2187,06
823,44	1711,93
823,618	1918,78
823,796	1640,25
823,974	1947,45
824,152	1843
824,329	2277,17
824,507	2109,24
824,685	2402,1
824,863	2404,14
825,04	2823,98
825,218	2889,51
825,396	3036,97
825,574	3012,39
825,751	3053,35
825,929	2967,34
826,107	2795,31
826,284	2842,41
826,462	2893,61
826,639	2768,68
826,817	2834,22
826,994	2725,68
827,172	2725,68
827,349	2590,51
827,527	2778,92
827,704	2357,04
827,882	2473,78
828,059	2221,88
828,237	2426,67
828,414	2111,29
828,591	2275,12
828,769	2021,17
828,946	2238,26
829,124	2025,27
829,301	2369,33
829,478	1914,68
829,655	2072,37
829,833	1855,29
830,01	2154,29
830,187	2072,37
830,364	2082,61
830,542	1996,6
830,719	2107,19
830,896	1937,21
831,073	2150,2
831,25	2060,09
831,427	2406,19
831,604	2099
831,782	2410,29
831,959	2332,47
832,136	2416,43
832,313	2107,19
832,49	1994,55
832,667	1947,45
832,844	2156,34
833,021	2012,98
833,198	2012,98
833,374	2002,74
833,551	2139,96
833,728	2099
833,905	2242,36
834,082	2015,03
834,259	2055,99
834,436	2055,99
834,612	2307,89
834,789	1990,45
834,966	2391,86
835,143	2094,9
835,319	2221,88
835,496	1939,26
835,673	2170,68
835,85	2015,03
836,026	2455,34
836,203	2027,32
836,38	2154,29
836,556	1881,91
836,733	2037,56
836,909	1818,43
837,086	2185,01
837,262	2068,28
837,439	2268,98
837,616	2367,28
837,792	2277,17
837,968	2053,94
838,145	2447,15
838,321	1945,4
838,498	2197,3
838,674	2127,67
838,851	2080,57
839,027	1972,02
839,203	2232,12
839,38	1994,55
839,556	2078,52
839,732	1931,06
839,909	2072,37
840,085	1806,14
840,261	2207,54
840,437	2174,77
840,614	2289,46
840,79	1832,76
840,966	2125,62
841,142	1849,15
841,318	2182,96
841,494	1834,81
841,671	2119,48
841,847	1769,27
842,023	2000,69
842,199	1881,91
842,375	1853,24
842,551	1898,3
842,727	2041,65
842,903	1941,3
843,079	1908,54
843,255	1828,67
843,431	1926,97
843,607	1779,51
843,783	1859,38
843,959	1814,33
844,134	1687,36
844,31	1648,44
844,486	1754,94
844,662	1589,05
844,838	1666,88
845,013	1679,16
845,189	1576,77
845,365	1670,97
845,541	1826,62
845,716	1597,24
845,892	1720,12
846,068	1535,81
846,244	1767,23
846,419	1652,54
846,595	1767,23
846,77	1593,15
846,946	1759,03
847,122	1527,61
847,297	1863,48
847,473	1691,45
847,648	1716,03
847,824	1439,55
847,999	1441,6
848,175	1294,15
848,35	1613,63
848,526	1548,09
848,701	1488,7
848,876	1341,25
849,052	1611,58
849,227	1500,99
849,403	1605,44
849,578	1437,5
849,753	1376,06
849,929	1193,8
850,104	1288
850,279	1089,35
850,454	1103,68
850,63	1060,68
850,805	993,09
850,98	1056,58
851,155	1075,01
851,33	991,05
851,505	1351,49
851,681	1097,54
851,856	1122,12
852,031	1027,91
852,206	1085,25
852,381	1060,68
852,556	1242,95
852,731	954,18
852,906	997,19
853,081	1134,4
853,256	1097,54
853,431	978,76
853,606	1161,03
853,781	995,14
853,956	1124,16
854,131	950,09
854,305	907,08
854,48	735,05
854,655	749,39
854,83	626,51
855,005	638,8
855,18	448,33
855,354	569,16
855,529	651,08
855,704	679,75
855,879	714,57
856,053	933,7
856,228	884,55
856,403	943,94
856,577	890,7
856,752	972,61
856,926	847,69
857,101	960,33
857,276	802,63
857,45	829,26
857,625	739,15
857,799	741,19
857,974	888,65
858,148	962,37
858,323	808,78
858,497	976,71
858,672	880,46
858,846	878,41
859,02	749,39
859,195	853,83
859,369	788,3
859,543	790,35
859,718	819,02
859,892	823,11
860,066	950,09
860,241	808,78
860,415	782,15
860,589	726,86
860,763	669,52
860,938	730,95
861,112	675,66
861,286	733
861,46	677,71
861,634	653,13
861,808	597,84
861,982	778,06
862,157	673,61
862,331	798,54
862,505	628,56
862,679	626,51
862,853	636,75
863,027	767,82
863,201	536,4
863,375	669,52
863,549	544,59
863,722	577,36
863,896	503,63
864,07	610,12
864,244	489,29
864,418	560,97
864,592	579,4
864,766	534,35
864,939	556,88
865,113	624,46
865,287	624,46
865,461	593,74
865,634	532,3
865,808	509,77
865,982	446,29
866,156	540,49
866,329	434
866,503	360,27
866,676	243,54
866,85	294,74
867,024	304,98
867,197	247,63
867,371	282,45
867,544	302,93
867,718	294,74
867,891	372,56
868,065	352,08
868,238	368,46
868,412	360,27
868,585	354,13
868,759	384,85
868,932	403,28
869,105	409,42
869,279	491,34
869,452	370,51
869,625	370,51
869,799	309,07
869,972	378,7
870,145	358,22
870,319	409,42
870,492	360,27
870,665	384,85
870,838	393,04
871,011	438,09
871,185	261,97
871,358	360,27
871,531	311,12
871,704	436,05
871,877	276,31
872,05	335,7
872,223	378,7
872,396	261,97
872,569	229,2
872,742	274,26
872,915	282,45
873,088	272,21
873,261	251,73
873,434	319,31
873,607	200,53
873,78	264,02
873,953	321,36
874,126	253,78
874,299	233,3
874,471	241,49
874,644	204,63
874,817	300,88
874,99	212,82
875,163	227,15
875,335	266,07
875,508	218,96
875,681	253,78
875,853	243,54
876,026	241,49
876,199	292,69
876,371	368,46
876,544	241,49
876,717	255,83
876,889	245,59
877,062	227,15
877,234	249,68
877,407	268,11
877,579	249,68
877,752	247,63
877,924	190,29
878,097	130,9
878,269	249,68
878,442	167,76
878,614	157,52
878,786	261,97
878,959	204,63
879,131	180,05
879,303	194,39
879,476	218,96
879,648	165,71
879,82	151,38
879,993	270,16
880,165	161,62
880,337	194,39
880,509	147,28
880,681	87,89
880,854	130,9
881,026	180,05
881,198	118,61
881,37	198,48
881,542	73,56
881,714	178
881,886	106,32
882,058	165,71
882,23	120,66
882,402	194,39
882,574	98,13
882,746	132,95
882,918	216,91
883,09	159,57
883,262	255,83
883,434	194,39
883,606	163,67
883,778	102,23
883,95	126,8
884,122	132,95
884,293	128,85
884,465	96,08
884,637	165,71
884,809	98,13
884,98	182,1
885,152	157,52
885,324	178
885,496	135
885,667	198,48
885,839	98,13
886,011	48,98
886,182	108,37
886,354	106,32
886,525	143,19
886,697	85,84
886,869	188,24
887,04	114,52
887,212	75,6
887,383	104,28
887,555	110,42
887,726	38,74
887,897	100,18
888,069	98,13
888,24	188,24
888,412	124,76
888,583	135
888,754	128,85
888,926	98,13
889,097	100,18
889,268	135
889,44	132,95
889,611	108,37
889,782	122,71
889,953	87,89
890,125	79,7
890,296	85,84
890,467	63,32
890,638	94,04
890,809	124,76
890,98	128,85
891,151	46,93
891,323	112,47
891,494	114,52
891,665	165,71
891,836	135
892,007	44,88
892,178	91,99
892,349	110,42
892,52	100,18
892,691	44,88
892,862	87,89
893,032	87,89
893,203	141,14
893,374	126,8
893,545	65,36
893,716	118,61
893,887	98,13
894,057	63,32
894,228	38,74
894,399	65,36
894,57	98,13
894,74	71,51
894,911	67,41
895,082	53,08
895,253	73,56
895,423	71,51
895,594	53,08
895,764	3,93
895,935	106,32
896,106	20,31
896,276	96,08
896,447	63,32
896,617	63,32
896,788	32,6
896,958	122,71
897,129	87,89
897,299	71,51
897,47	46,93
897,64	40,79
897,81	75,6
897,981	63,32
898,151	73,56
898,322	28,5
898,492	-0,17
898,662	77,65
898,832	-2,22
899,003	51,03
899,173	110,42
899,343	34,64
899,513	-8,36
