Data from sun_USB4F104151__9__16-40-13-917.txt Node

Date: Thu Mar 07 16:40:13 EST 2024
User: lauri
Spectrometer: USB4F10415
Trigger mode: 4
Integration Time (sec): 2,000000E-3
Scans to average: 1
Electric dark correction enabled: true
Nonlinearity correction enabled: false
Boxcar width: 0
XAxis mode: Wavelengths
Number of Pixels in Spectrum: 3648
>>>>>Begin Spectral Data<<<<<
178,204	27,48
178,424	27,48
178,644	27,48
178,864	43,86
179,084	39,76
179,304	27,48
179,524	-68,78
179,744	-29,87
179,964	-15,53
180,184	-68,78
180,404	43,86
180,624	9,05
180,844	-33,96
181,064	27,48
181,283	-11,43
181,503	47,96
181,723	72,53
181,943	15,19
182,163	-23,72
182,383	23,38
182,602	27,48
182,822	9,05
183,042	39,76
183,262	-15,53
183,482	-11,43
183,701	-1,19
183,921	-42,15
184,141	-11,43
184,361	33,62
184,58	-48,3
184,8	-48,3
185,02	41,81
185,239	-54,44
185,459	25,43
185,679	2,9
185,898	-38,06
186,118	-15,53
186,338	-5,29
186,557	-19,63
186,777	-89,26
186,997	-1,19
187,216	62,29
187,436	-42,15
187,655	39,76
187,875	25,43
188,095	27,48
188,314	-3,24
188,534	-27,82
188,753	13,14
188,973	-1,19
189,192	-13,48
189,412	-25,77
189,631	-7,34
189,851	-15,53
190,07	31,57
190,29	35,67
190,509	43,86
190,729	-11,43
190,948	13,14
191,168	-31,91
191,387	25,43
191,607	-19,63
191,826	-15,53
192,045	13,14
192,265	13,14
192,484	-25,77
192,704	-3,24
192,923	-27,82
193,142	-56,49
193,362	39,76
193,581	35,67
193,8	2,9
194,02	-7,34
194,239	-1,19
194,458	19,29
194,678	-9,39
194,897	-74,92
195,116	-17,58
195,335	-9,39
195,555	11,09
195,774	-1,19
195,993	15,19
196,212	9,05
196,432	-44,2
196,651	2,9
196,87	9,05
197,089	-33,96
197,308	60,24
197,528	-50,35
197,747	-25,77
197,966	-9,39
198,185	-1,19
198,404	-29,87
198,623	15,19
198,842	-23,72
199,062	27,48
199,281	-52,39
199,5	-7,34
199,719	-17,58
199,938	-50,35
200,157	-25,77
200,376	-5,29
200,595	-19,63
200,814	47,96
201,033	-23,72
201,252	-50,35
201,471	13,14
201,69	-33,96
201,909	52,05
202,128	15,19
202,347	-5,29
202,566	0,85
202,785	-36,01
203,004	-31,91
203,223	-54,44
203,442	19,29
203,661	-11,43
203,879	-1,19
204,098	13,14
204,317	58,2
204,536	39,76
204,755	-1,19
204,974	45,91
205,193	-95,4
205,411	45,91
205,63	29,52
205,849	13,14
206,068	50
206,287	74,58
206,505	39,76
206,724	-42,15
206,943	0,85
207,162	-3,24
207,381	54,1
207,599	-7,34
207,818	-9,39
208,037	-15,53
208,255	9,05
208,474	-40,11
208,693	-31,91
208,911	17,24
209,13	31,57
209,349	70,48
209,567	-56,49
209,786	-58,54
210,005	-48,3
210,223	72,53
210,442	-76,97
210,661	58,2
210,879	-19,63
211,098	-7,34
211,316	-83,11
211,535	7
211,753	62,29
211,972	29,52
212,191	41,81
212,409	15,19
212,628	7
212,846	23,38
213,065	62,29
213,283	-19,63
213,502	-17,58
213,72	88,92
213,938	31,57
214,157	95,06
214,375	33,62
214,594	13,14
214,812	-33,96
215,031	-44,2
215,249	-1,19
215,467	-36,01
215,686	13,14
215,904	50
216,122	27,48
216,341	-33,96
216,559	-9,39
216,778	0,85
216,996	9,05
217,214	-9,39
217,432	-21,67
217,651	-3,24
217,869	-19,63
218,087	39,76
218,306	-42,15
218,524	72,53
218,742	-52,39
218,96	58,2
219,179	-48,3
219,397	-3,24
219,615	-54,44
219,833	-15,53
220,051	37,72
220,27	-72,87
220,488	-11,43
220,706	0,85
220,924	-11,43
221,142	33,62
221,36	29,52
221,578	29,52
221,796	-1,19
222,015	82,77
222,233	11,09
222,451	13,14
222,669	0,85
222,887	47,96
223,105	-38,06
223,323	-40,11
223,541	35,67
223,759	-11,43
223,977	-56,49
224,195	-5,29
224,413	19,29
224,631	17,24
224,849	0,85
225,067	-21,67
225,285	-17,58
225,503	-19,63
225,721	43,86
225,939	-1,19
226,157	0,85
226,375	90,96
226,592	-9,39
226,81	-52,39
227,028	-7,34
227,246	-54,44
227,464	-13,48
227,682	4,95
227,9	-48,3
228,117	64,34
228,335	21,33
228,553	-40,11
228,771	-36,01
228,989	-9,39
229,206	-21,67
229,424	68,44
229,642	-60,59
229,86	-29,87
230,077	-40,11
230,295	-7,34
230,513	-7,34
230,731	25,43
230,948	11,09
231,166	-40,11
231,384	-15,53
231,601	43,86
231,819	-48,3
232,037	-21,67
232,254	-31,91
232,472	-50,35
232,689	-48,3
232,907	-23,72
233,125	-48,3
233,342	64,34
233,56	4,95
233,777	-46,25
233,995	13,14
234,213	56,15
234,43	7
234,648	33,62
234,865	39,76
235,083	-13,48
235,3	19,29
235,518	82,77
235,735	-50,35
235,953	-36,01
236,17	0,85
236,388	13,14
236,605	45,91
236,822	43,86
237,04	-74,92
237,257	23,38
237,475	-62,63
237,692	-13,48
237,909	-79,02
238,127	11,09
238,344	-27,82
238,562	13,14
238,779	-54,44
238,996	-52,39
239,214	-33,96
239,431	64,34
239,648	-23,72
239,865	27,48
240,083	-62,63
240,3	2,9
240,517	23,38
240,735	60,24
240,952	-36,01
241,169	-27,82
241,386	-60,59
241,603	27,48
241,821	13,14
242,038	37,72
242,255	2,9
242,472	45,91
242,689	45,91
242,907	-42,15
243,124	-1,19
243,341	23,38
243,558	58,2
243,775	-1,19
243,992	9,05
244,209	15,19
244,426	19,29
244,643	-13,48
244,86	54,1
245,078	-44,2
245,295	-1,19
245,512	-9,39
245,729	17,24
245,946	2,9
246,163	-9,39
246,38	33,62
246,597	-64,68
246,814	-21,67
247,031	-58,54
247,248	-62,63
247,464	-1,19
247,681	19,29
247,898	33,62
248,115	21,33
248,332	-38,06
248,549	-21,67
248,766	-27,82
248,983	-64,68
249,2	-50,35
249,417	58,2
249,633	-36,01
249,85	21,33
250,067	21,33
250,284	-11,43
250,501	27,48
250,717	-38,06
250,934	-72,87
251,151	31,57
251,368	-15,53
251,585	17,24
251,801	23,38
252,018	17,24
252,235	-29,87
252,451	19,29
252,668	-50,35
252,885	-3,24
253,102	-23,72
253,318	60,24
253,535	-31,91
253,752	-29,87
253,968	52,05
254,185	0,85
254,401	27,48
254,618	-54,44
254,835	-23,72
255,051	17,24
255,268	-40,11
255,484	7
255,701	-1,19
255,917	23,38
256,134	-25,77
256,351	39,76
256,567	-15,53
256,784	-15,53
257	17,24
257,217	7
257,433	-23,72
257,65	-3,24
257,866	11,09
258,082	37,72
258,299	64,34
258,515	35,67
258,732	23,38
258,948	-11,43
259,165	-3,24
259,381	47,96
259,597	29,52
259,814	9,05
260,03	-66,73
260,246	13,14
260,463	9,05
260,679	25,43
260,895	-15,53
261,112	23,38
261,328	-25,77
261,544	19,29
261,761	2,9
261,977	7
262,193	37,72
262,409	-13,48
262,626	-31,91
262,842	56,15
263,058	-21,67
263,274	39,76
263,49	-9,39
263,707	39,76
263,923	39,76
264,139	-33,96
264,355	2,9
264,571	21,33
264,787	35,67
265,004	13,14
265,22	19,29
265,436	11,09
265,652	-58,54
265,868	-21,67
266,084	-46,25
266,3	19,29
266,516	-1,19
266,732	2,9
266,948	-1,19
267,164	45,91
267,38	-64,68
267,596	9,05
267,812	17,24
268,028	27,48
268,244	-17,58
268,46	56,15
268,676	-38,06
268,892	66,39
269,108	37,72
269,324	-48,3
269,54	52,05
269,756	7
269,972	60,24
270,188	-44,2
270,403	-48,3
270,619	29,52
270,835	-44,2
271,051	-38,06
271,267	-9,39
271,483	-56,49
271,698	-17,58
271,914	-25,77
272,13	0,85
272,346	-33,96
272,562	-13,48
272,777	84,82
272,993	29,52
273,209	23,38
273,425	-9,39
273,64	50
273,856	27,48
274,072	17,24
274,287	15,19
274,503	-5,29
274,719	-9,39
274,934	-21,67
275,15	15,19
275,366	-7,34
275,581	7
275,797	-31,91
276,012	35,67
276,228	-23,72
276,444	17,24
276,659	11,09
276,875	-1,19
277,09	23,38
277,306	45,91
277,521	11,09
277,737	-5,29
277,952	-9,39
278,168	-25,77
278,383	-25,77
278,599	9,05
278,814	37,72
279,03	-52,39
279,245	-19,63
279,461	9,05
279,676	-11,43
279,892	-68,78
280,107	-5,29
280,322	31,57
280,538	-23,72
280,753	-9,39
280,969	-38,06
281,184	4,95
281,399	0,85
281,615	2,9
281,83	62,29
282,045	50
282,26	-1,19
282,476	-9,39
282,691	29,52
282,906	-31,91
283,122	56,15
283,337	54,1
283,552	4,95
283,767	-9,39
283,983	-9,39
284,198	9,05
284,413	-17,58
284,628	45,91
284,843	103,25
285,058	-64,68
285,274	23,38
285,489	19,29
285,704	37,72
285,919	-54,44
286,134	11,09
286,349	29,52
286,564	4,95
286,779	21,33
286,995	-27,82
287,21	2,9
287,425	7
287,64	-11,43
287,855	45,91
288,07	72,53
288,285	2,9
288,5	-31,91
288,715	2,9
288,93	-36,01
289,145	56,15
289,36	-25,77
289,575	39,76
289,79	21,33
290,004	31,57
290,219	-25,77
290,434	4,95
290,649	17,24
290,864	-21,67
291,079	33,62
291,294	25,43
291,509	29,52
291,724	-36,01
291,938	7
292,153	-42,15
292,368	-9,39
292,583	-23,72
292,798	0,85
293,012	31,57
293,227	-21,67
293,442	25,43
293,657	-46,25
293,871	33,62
294,086	-31,91
294,301	-1,19
294,516	-9,39
294,73	-33,96
294,945	-1,19
295,16	2,9
295,374	-1,19
295,589	19,29
295,804	-3,24
296,018	-17,58
296,233	-3,24
296,447	29,52
296,662	4,95
296,877	25,43
297,091	-19,63
297,306	41,81
297,52	11,09
297,735	-42,15
297,949	-11,43
298,164	9,05
298,378	-42,15
298,593	64,34
298,807	39,76
299,022	-44,2
299,236	19,29
299,451	-70,83
299,665	-9,39
299,88	17,24
300,094	-15,53
300,309	29,52
300,523	41,81
300,737	2,9
300,952	-58,54
301,166	-3,24
301,381	0,85
301,595	-29,87
301,809	-15,53
302,024	33,62
302,238	31,57
302,452	-1,19
302,667	25,43
302,881	47,96
303,095	-33,96
303,309	37,72
303,524	23,38
303,738	-9,39
303,952	31,57
304,166	-31,91
304,381	82,77
304,595	-29,87
304,809	25,43
305,023	17,24
305,237	-17,58
305,452	11,09
305,666	-5,29
305,88	-25,77
306,094	21,33
306,308	4,95
306,522	-25,77
306,736	-25,77
306,95	-44,2
307,164	2,9
307,379	58,2
307,593	11,09
307,807	-38,06
308,021	-42,15
308,235	-27,82
308,449	-50,35
308,663	-3,24
308,877	41,81
309,091	19,29
309,305	-56,49
309,519	-15,53
309,733	-31,91
309,947	31,57
310,161	-21,67
310,374	-70,83
310,588	-21,67
310,802	7
311,016	-29,87
311,23	15,19
311,444	-3,24
311,658	-44,2
311,872	15,19
312,085	-1,19
312,299	-21,67
312,513	27,48
312,727	-29,87
312,941	33,62
313,154	-17,58
313,368	-48,3
313,582	-7,34
313,796	-25,77
314,009	-5,29
314,223	45,91
314,437	33,62
314,651	-7,34
314,864	43,86
315,078	52,05
315,292	-64,68
315,505	21,33
315,719	0,85
315,933	50
316,146	21,33
316,36	-7,34
316,573	-58,54
316,787	-11,43
317,001	23,38
317,214	-19,63
317,428	-19,63
317,641	-66,73
317,855	-33,96
318,068	35,67
318,282	-36,01
318,495	39,76
318,709	-68,78
318,922	-27,82
319,136	7
319,349	4,95
319,563	-5,29
319,776	45,91
319,99	7
320,203	-23,72
320,417	-11,43
320,63	25,43
320,843	-21,67
321,057	45,91
321,27	95,06
321,483	-27,82
321,697	9,05
321,91	-29,87
322,124	2,9
322,337	-1,19
322,55	-40,11
322,763	-31,91
322,977	7
323,19	0,85
323,403	74,58
323,617	-11,43
323,83	-17,58
324,043	54,1
324,256	37,72
324,469	13,14
324,683	-60,59
324,896	50
325,109	33,62
325,322	-5,29
325,535	0,85
325,748	0,85
325,962	43,86
326,175	-25,77
326,388	39,76
326,601	0,85
326,814	25,43
327,027	-40,11
327,24	4,95
327,453	74,58
327,666	54,1
327,879	17,24
328,092	-23,72
328,305	-17,58
328,518	9,05
328,731	-44,2
328,944	9,05
329,157	47,96
329,37	-7,34
329,583	66,39
329,796	19,29
330,009	41,81
330,222	-23,72
330,435	-1,19
330,648	-7,34
330,861	2,9
331,073	-3,24
331,286	-33,96
331,499	-58,54
331,712	72,53
331,925	9,05
332,138	-11,43
332,35	-36,01
332,563	4,95
332,776	-15,53
332,989	15,19
333,202	-1,19
333,414	-23,72
333,627	17,24
333,84	39,76
334,053	47,96
334,265	19,29
334,478	86,87
334,691	13,14
334,903	33,62
335,116	-21,67
335,329	-42,15
335,541	-11,43
335,754	-31,91
335,966	11,09
336,179	-21,67
336,392	-36,01
336,604	31,57
336,817	-36,01
337,029	41,81
337,242	-3,24
337,454	35,67
337,667	35,67
337,88	-17,58
338,092	-21,67
338,305	17,24
338,517	70,48
338,729	86,87
338,942	47,96
339,154	29,52
339,367	39,76
339,579	-3,24
339,792	9,05
340,004	-56,49
340,217	-15,53
340,429	62,29
340,641	-11,43
340,854	-9,39
341,066	-38,06
341,278	2,9
341,491	41,81
341,703	-33,96
341,915	-13,48
342,128	25,43
342,34	-42,15
342,552	78,68
342,764	-1,19
342,977	-1,19
343,189	17,24
343,401	-3,24
343,613	-21,67
343,826	9,05
344,038	-1,19
344,25	7
344,462	-1,19
344,674	9,05
344,886	-40,11
345,099	-27,82
345,311	43,86
345,523	78,68
345,735	-11,43
345,947	33,62
346,159	23,38
346,371	19,29
346,583	-21,67
346,795	-42,15
347,007	19,29
347,219	9,05
347,431	4,95
347,643	45,91
347,855	27,48
348,067	-5,29
348,279	15,19
348,491	19,29
348,703	62,29
348,915	52,05
349,127	-70,83
349,339	23,38
349,551	-27,82
349,763	88,92
349,975	9,05
350,187	0,85
350,399	-40,11
350,61	-13,48
350,822	0,85
351,034	47,96
351,246	11,09
351,458	88,92
351,669	17,24
351,881	33,62
352,093	2,9
352,305	78,68
352,517	7
352,728	0,85
352,94	-31,91
353,152	23,38
353,363	-19,63
353,575	-23,72
353,787	50
353,999	4,95
354,21	31,57
354,422	-17,58
354,633	-9,39
354,845	17,24
355,057	-95,4
355,268	-1,19
355,48	0,85
355,692	7
355,903	-15,53
356,115	37,72
356,326	15,19
356,538	50
356,749	-15,53
356,961	103,25
357,172	9,05
357,384	-5,29
357,595	-3,24
357,807	7
358,018	27,48
358,23	21,33
358,441	-38,06
358,653	-1,19
358,864	56,15
359,075	-15,53
359,287	17,24
359,498	39,76
359,709	4,95
359,921	-7,34
360,132	-9,39
360,344	-9,39
360,555	-23,72
360,766	-1,19
360,977	-9,39
361,189	-5,29
361,4	35,67
361,611	64,34
361,823	84,82
362,034	27,48
362,245	64,34
362,456	11,09
362,667	37,72
362,879	25,43
363,09	17,24
363,301	33,62
363,512	13,14
363,723	35,67
363,935	21,33
364,146	-36,01
364,357	11,09
364,568	25,43
364,779	78,68
364,99	70,48
365,201	68,44
365,412	17,24
365,623	-1,19
365,834	-19,63
366,045	-64,68
366,256	-25,77
366,467	64,34
366,678	76,63
366,889	11,09
367,1	54,1
367,311	39,76
367,522	11,09
367,733	-23,72
367,944	90,96
368,155	-9,39
368,366	37,72
368,577	88,92
368,788	31,57
368,999	31,57
369,209	47,96
369,42	62,29
369,631	37,72
369,842	58,2
370,053	47,96
370,264	2,9
370,474	52,05
370,685	43,86
370,896	11,09
371,107	95,06
371,317	123,73
371,528	58,2
371,739	-5,29
371,95	-23,72
372,16	64,34
372,371	50
372,582	15,19
372,792	29,52
373,003	27,48
373,214	37,72
373,424	15,19
373,635	60,24
373,846	86,87
374,056	97,11
374,267	70,48
374,477	99,16
374,688	54,1
374,898	105,3
375,109	88,92
375,319	35,67
375,53	43,86
375,74	109,4
375,951	113,49
376,161	74,58
376,372	37,72
376,582	80,72
376,793	68,44
377,003	117,59
377,214	105,3
377,424	62,29
377,635	78,68
377,845	72,53
378,055	45,91
378,266	66,39
378,476	0,85
378,686	21,33
378,897	97,11
379,107	109,4
379,317	156,5
379,528	4,95
379,738	109,4
379,948	125,78
380,158	29,52
380,369	84,82
380,579	160,59
380,789	9,05
380,999	-54,44
381,21	56,15
381,42	103,25
381,63	21,33
381,84	47,96
382,05	144,21
382,261	45,91
382,471	21,33
382,681	29,52
382,891	111,44
383,101	97,11
383,311	11,09
383,521	115,54
383,731	47,96
383,941	72,53
384,151	76,63
384,361	156,5
384,571	133,97
384,781	39,76
384,991	107,35
385,201	19,29
385,411	90,96
385,621	101,2
385,831	195,41
386,041	95,06
386,251	125,78
386,461	88,92
386,671	164,69
386,881	86,87
387,091	166,74
387,301	129,88
387,511	115,54
387,72	191,31
387,93	166,74
388,14	156,5
388,35	197,46
388,56	242,51
388,769	242,51
388,979	254,8
389,189	246,61
389,399	275,28
389,609	299,86
389,818	281,43
390,028	234,32
390,238	195,41
390,447	187,22
390,657	240,47
390,867	136,02
391,076	148,31
391,286	70,48
391,496	121,68
391,705	140,12
391,915	119,64
392,125	82,77
392,334	138,07
392,544	133,97
392,753	129,88
392,963	228,18
393,172	215,89
393,382	234,32
393,591	219,99
393,801	209,75
394,01	181,07
394,22	197,46
394,429	203,6
394,639	181,07
394,848	127,83
395,058	203,6
395,267	150,36
395,477	189,27
395,686	244,56
395,895	250,71
396,105	322,38
396,314	367,44
396,524	437,07
396,733	566,09
396,942	574,28
397,152	817,99
397,361	688,97
397,57	867,14
397,78	820,04
397,989	1010,5
398,198	1295,17
398,407	1229,63
398,617	1131,33
398,826	1303,36
399,035	1221,44
399,244	1385,28
399,453	1260,35
399,663	1545,02
399,872	1542,97
400,081	1620,8
400,29	1387,33
400,499	1618,75
400,708	1344,32
400,917	1706,81
401,127	1485,63
401,336	1651,52
401,545	1606,46
401,754	1594,17
401,963	1696,57
402,172	1758,01
402,381	1614,65
402,59	1942,33
402,799	1555,26
403,008	1686,33
403,217	1628,99
403,426	1688,38
403,635	1563,45
403,844	1588,03
404,053	1729,34
404,262	1780,54
404,471	1727,29
404,68	1751,87
404,888	1631,04
405,097	1760,06
405,306	1725,24
405,515	1737,53
405,724	1727,29
405,933	2022,2
406,142	1987,38
406,35	2022,2
406,559	2028,34
406,768	2286,39
406,977	2063,16
407,185	2364,21
407,394	1946,42
407,603	2380,59
407,812	2106,17
408,02	2294,58
408,229	2054,97
408,438	2243,38
408,646	2145,08
408,855	2161,46
409,064	2057,01
409,272	2442,03
409,481	2554,67
409,69	2771,76
409,898	2423,6
410,107	2890,54
410,315	2485,04
410,524	2851,63
410,733	2743,08
410,941	2745,13
411,15	2661,16
411,358	2904,87
411,567	2890,54
411,775	3035,94
411,984	2970,41
412,192	2999,08
412,401	2732,84
412,609	2949,93
412,818	3048,23
413,026	3050,28
413,234	3140,39
413,443	3113,77
413,651	3185,44
413,86	3181,35
414,068	3160,87
414,276	3336,99
414,485	3203,88
414,693	3119,91
414,901	3199,78
415,11	3484,45
415,318	3148,58
415,526	3388,19
415,734	3144,49
415,943	3420,96
416,151	3007,27
416,359	3238,69
416,567	3138,34
416,776	2986,79
416,984	3115,81
417,192	3347,23
417,4	3099,43
417,608	3087,14
417,817	3218,21
418,025	3214,12
418,233	3185,44
418,441	3377,95
418,649	3302,18
418,857	3707,68
419,065	3265,32
419,273	3406,63
419,481	3373,86
419,689	3879,71
419,897	3494,69
420,105	3795,74
420,313	3580,7
420,521	3513,12
420,729	3439,39
420,937	3447,58
421,145	3461,92
421,353	3650,33
421,561	3453,73
421,769	3572,51
421,977	3740,44
422,185	3478,3
422,393	3670,81
422,601	3896,09
422,809	3545,89
423,017	3617,57
423,224	3549,98
423,432	3746,59
423,64	3711,77
423,848	3957,53
424,056	3531,55
424,263	3902,23
424,471	3752,73
424,679	3662,62
424,887	3638,05
425,094	4037,4
425,302	3668,77
425,51	3953,43
425,718	3457,82
425,925	3873,56
426,133	3732,25
426,341	4000,54
426,548	4023,06
426,756	3838,75
426,964	3689,25
427,171	4025,11
427,379	3652,38
427,586	3711,77
427,794	3386,15
428,001	3461,92
428,209	3416,87
428,417	3250,98
428,624	3250,98
428,832	3142,44
429,039	2978,6
429,247	2972,46
429,454	3210,02
429,662	3722,01
429,869	3373,86
430,076	4098,84
430,284	3547,94
430,491	4131,61
430,699	4424,47
430,906	4592,4
431,114	4248,34
431,321	4623,12
431,528	4528,91
431,736	4875,02
431,943	5014,28
432,15	4854,54
432,358	4799,24
432,565	5055,24
432,772	4719,37
432,979	5102,34
433,187	5047,05
433,394	5243,65
433,601	5532,42
433,808	5630,72
434,016	5358,34
434,223	5972,73
434,43	6300,41
434,637	6019,83
434,844	6255,35
435,052	6363,89
435,259	6073,08
435,466	6109,94
435,673	5876,48
435,88	6529,78
436,087	6411
436,294	6439,67
436,501	5845,76
436,708	5925,63
436,915	6017,79
437,122	6105,85
437,329	5780,22
437,537	6243,06
437,743	6052,6
437,95	6279,93
438,157	6355,7
438,364	6873,84
438,571	6490,87
438,778	6486,77
438,985	6896,36
439,192	6822,64
439,399	6683,38
439,606	6767,34
439,813	7099,11
440,02	7557,86
440,227	7387,88
440,433	7199,46
440,64	7344,87
440,847	7234,28
441,054	7219,94
441,261	7643,87
441,467	7482,08
441,674	7598,82
441,881	7654,11
442,088	7903,96
442,294	7488,23
442,501	7981,79
442,708	7658,21
442,914	8274,65
443,121	8211,16
443,328	8082,14
443,534	8241,88
443,741	7858,91
443,948	7551,71
444,154	8032,99
444,361	7547,62
444,568	7822,05
444,774	7379,68
444,981	7387,88
445,187	7602,91
445,394	8143,58
445,6	7820
445,807	9007,82
446,013	7865,05
446,22	8592,08
446,426	8508,12
446,633	8635,09
446,839	8598,23
447,046	8293,08
447,252	8831,69
447,459	8778,45
447,665	8293,08
447,871	9040,59
448,078	9255,62
448,284	8981,2
448,491	9042,64
448,697	9495,24
448,903	9421,51
449,11	9478,85
449,316	9142,99
449,522	9540,29
449,728	9773,76
449,935	9953,98
450,141	9456,33
450,347	9843,39
450,553	9159,37
450,76	9259,72
450,966	9415,37
451,172	9157,32
451,378	9218,76
451,584	9347,78
451,791	9048,78
451,997	9263,82
452,203	9290,44
452,409	9640,64
452,615	9380,55
452,821	9278,15
453,027	9159,37
453,233	9794,24
453,44	8960,72
453,646	9767,62
453,852	9630,4
454,058	10166,97
454,264	9900,73
454,47	10355,38
454,676	10257,08
454,882	10863,28
455,088	9949,89
455,294	10441,4
455,5	10341,05
455,705	11086,51
455,911	10492,6
456,117	10287,8
456,323	10648,24
456,529	10226,36
456,735	10527,41
456,941	10629,81
457,147	10601,14
457,352	10635,96
457,558	10343,1
457,764	10728,11
457,97	10908,33
458,176	10826,42
458,381	10781,36
458,587	10689,2
458,793	11016,88
458,999	10908,33
459,204	11901,6
459,41	12368,54
459,616	11670,18
459,821	11713,19
460,027	12173,98
460,233	12245,66
460,438	11881,12
460,644	12364,44
460,85	11840,16
461,055	12452,5
461,261	12049,05
461,466	11752,1
461,672	11743,91
461,878	12776,08
462,083	11995,81
462,289	12098,2
462,494	11977,37
462,7	11741,86
462,905	11754,15
463,111	12464,79
463,316	12765,84
463,522	12685,97
463,727	12743,31
463,932	13249,16
464,138	13466,25
464,343	13425,29
464,549	13089,42
464,754	14430,84
464,959	13922,94
465,165	14123,65
465,37	13611,65
465,575	13611,65
465,781	14445,18
465,986	14398,07
466,191	14193,28
466,397	14324,35
466,602	13812,35
466,807	14584,44
467,012	14709,36
467,218	14856,82
467,423	15168,11
467,628	15583,85
467,833	15997,54
468,038	15596,14
468,244	15366,76
468,449	15991,39
468,654	15663,72
468,859	16126,56
469,064	15882,85
469,269	15571,56
469,474	15911,52
469,679	16329,31
469,885	16308,83
470,09	17142,35
470,295	17048,15
470,5	17156,69
470,705	17558,09
470,91	17748,55
471,115	17652,3
471,32	18248,25
471,525	18100,8
471,73	17918,53
471,935	17990,21
472,139	18238,02
472,344	18076,23
472,549	18754,1
472,754	18950,71
472,959	19016,24
473,164	18774,58
473,369	18735,67
473,574	19743,27
473,778	19878,44
473,983	19669,55
474,188	20382,24
474,393	19857,96
474,598	20087,33
474,802	19710,5
475,007	20122,15
475,212	20140,58
475,417	20081,19
475,621	20390,43
475,826	20871,7
476,031	20816,41
476,235	21660,17
476,44	21680,65
476,645	21398,03
476,849	22139,4
477,054	22575,61
477,259	22473,21
477,463	22895,1
477,668	22579,71
477,872	23380,46
478,077	23374,32
478,282	23321,07
478,486	23390,7
478,691	23845,35
478,895	24037,86
479,1	24504,8
479,304	24717,79
479,509	24265,19
479,713	24885,72
479,918	25108,95
480,122	24910,3
480,326	25563,6
480,531	25666
480,735	26036,68
480,94	25932,23
481,144	26988,99
481,348	26253,76
481,553	26907,07
481,757	25965
481,961	27113,91
482,166	27310,52
482,37	26862,01
482,574	26558,91
482,778	27113,91
482,983	27042,23
483,187	26925,5
483,391	27079,1
483,595	26677,69
483,8	26366,4
484,004	26563,01
484,208	25891,27
484,412	25024,98
484,616	24926,68
484,821	25074,13
485,025	24150,5
485,229	24744,41
485,433	24961,5
485,637	25323,99
485,841	25504,21
486,045	26130,89
486,249	26292,68
486,453	26923,45
486,657	27070,9
486,861	27705,77
487,065	26788,28
487,269	27511,22
487,473	27619,76
487,677	28260,77
487,881	28918,17
488,085	29032,86
488,289	29260,18
488,493	29782,41
488,697	30069,13
488,901	30499,2
489,105	29895,05
489,309	30261,64
489,512	30081,42
489,716	30914,94
489,92	30366,09
490,124	30140,81
490,328	30343,56
490,531	29981,07
490,735	29985,16
490,939	30441,86
491,143	30306,69
491,346	30632,32
491,55	30744,96
491,754	30908,8
491,958	30980,48
492,161	31252,86
492,365	31545,72
492,569	31259
492,772	31439,22
492,976	31846,77
493,18	31824,24
493,383	32481,64
493,587	32242,03
493,79	32541,03
493,994	32403,81
494,197	33157,47
494,401	32840,03
494,605	32856,42
494,808	33280,35
495,012	33089,88
495,215	32942,43
495,419	33411,42
495,622	33059,16
495,825	33362,26
496,029	33220,95
496,232	33915,22
496,436	32731,49
496,639	33302,87
496,843	32123,24
497,046	32993,63
497,249	32907,62
497,453	33022,3
497,656	32897,38
497,859	32950,62
498,063	33104,22
498,266	33300,83
498,469	32977,25
498,673	32747,87
498,876	32457,06
499,079	32602,47
499,282	31736,18
499,485	32139,63
499,689	31730,03
499,892	31809,9
500,095	31545,72
500,298	32110,96
500,501	31144,31
500,705	31799,66
500,908	31857,01
501,111	32244,07
501,314	32090,48
501,517	32192,87
501,72	32266,6
501,923	31773,04
502,126	32094,57
502,329	32534,88
502,532	31705,46
502,735	32358,76
502,938	32301,42
503,141	31979,89
503,344	32471,4
503,547	32180,59
503,75	32594,28
503,953	33112,41
504,156	32999,77
504,359	33352,02
504,562	33552,73
504,765	33878,35
504,968	33980,75
505,17	33898,83
505,373	33435,99
505,576	33597,78
505,779	33571,16
505,982	33616,21
506,185	33724,75
506,387	33945,94
506,59	33839,44
506,793	33982,8
506,996	33280,35
507,198	33892,69
507,401	33524,05
507,604	33796,43
507,807	34384,2
508,009	34390,34
508,212	34410,82
508,415	34232,65
508,617	34619,72
508,82	34654,53
509,022	33882,45
509,225	35123,52
509,428	34763,07
509,63	34836,8
509,833	34539,85
510,035	35701,04
510,238	35320,12
510,44	36041,01
510,643	36186,41
510,845	35436,86
511,048	34679,11
511,25	35240,25
511,453	35248,44
511,655	35897,65
511,858	34986,3
512,06	34965,82
512,262	34943,3
512,465	34828,61
512,667	34476,36
512,87	34851,14
513,072	34531,65
513,274	34857,28
513,477	35090,75
513,679	35273,02
513,881	35418,42
514,084	36012,34
514,286	35275,07
514,488	35488,06
514,69	35901,75
514,893	35576,12
515,095	34003,28
515,297	33880,4
515,499	32889,18
515,701	32932,19
515,904	32960,86
516,106	32457,06
516,308	32692,58
516,51	33337,69
516,712	32717,15
516,914	33427,8
517,116	33184,09
517,318	32991,58
517,52	33032,54
517,722	33747,28
517,925	34013,52
518,127	34457,93
518,329	35227,96
518,531	34799,94
518,733	35828,02
518,935	36116,78
519,136	35758,39
519,338	36938,02
519,54	36270,38
519,742	36438,31
519,944	36413,74
520,146	37071,14
520,348	37562,65
520,55	37486,87
520,752	37832,98
520,954	37998,87
521,155	37595,42
521,357	37677,33
521,559	38195,47
521,761	38103,31
521,963	37368,09
522,164	37239,07
522,366	37763,35
522,568	38803,72
522,77	38705,41
522,971	40073,46
523,173	38916,36
523,375	39256,32
523,576	39096,58
523,778	39520,51
523,98	39723,26
524,181	39526,65
524,383	38621,45
524,584	38838,53
524,786	38021,39
524,988	37488,92
525,189	37286,17
525,391	37243,17
525,592	36047,15
525,794	36434,22
525,995	36061,49
526,197	36477,22
526,398	36249,9
526,6	37034,27
526,801	37116,19
527,003	37153,05
527,204	37554,46
527,406	38582,54
527,607	38357,26
527,808	38639,88
528,01	37988,63
528,211	38103,31
528,412	39143,68
528,614	38455,56
528,815	37830,93
529,016	38574,34
529,218	38275,34
529,419	38840,58
529,62	38807,81
529,822	38850,82
530,023	38611,21
530,224	38527,24
530,425	37771,54
530,626	38179,09
530,828	37622,04
531,029	38029,59
531,23	36784,42
531,431	36852
531,632	36669,73
531,833	36935,97
532,035	36000,05
532,236	36464,94
532,437	36464,94
532,638	36802,85
532,839	36714,79
533,04	36557,1
533,241	36749,6
533,442	37521,69
533,643	36794,66
533,844	37366,04
534,045	37650,71
534,246	37404,95
534,447	37957,91
534,648	37749,01
534,849	37730,58
535,05	36968,74
535,251	37124,38
535,451	36763,94
535,652	36839,72
535,853	36829,48
536,054	36426,03
536,255	36933,92
536,456	36301,1
536,657	36473,13
536,857	36198,7
537,058	36559,14
537,259	36888,87
537,46	36845,86
537,66	36526,38
537,861	36380,97
538,062	35842,35
538,263	35993,9
538,463	35561,78
538,664	35270,97
538,865	35154,24
539,065	35391,8
539,266	34230,6
539,466	35078,46
539,667	34767,17
539,868	34853,19
540,068	34541,89
540,269	34576,71
540,469	34724,16
540,67	34933,06
540,87	34634,05
541,071	34931,01
541,271	34949,44
541,472	35014,98
541,672	34345,29
541,873	35064,13
542,073	34507,08
542,274	35152,19
542,474	34683,2
542,675	34533,7
542,875	35260,73
543,075	35131,71
543,276	34525,51
543,476	35615,03
543,676	34937,15
543,877	35275,07
544,077	35174,72
544,277	34939,2
544,478	34986,3
544,678	35346,75
544,878	34656,58
545,078	35367,23
545,279	35072,32
545,479	34840,9
545,679	34836,8
545,879	34990,4
546,079	34640,2
546,28	34775,36
546,48	33841,49
546,68	34216,27
546,88	34511,17
547,08	34679,11
547,28	34361,67
547,48	34232,65
547,68	34810,18
547,88	34519,37
548,081	34816,32
548,281	34931,01
548,481	34634,05
548,681	34992,45
548,881	34255,18
549,081	34341,19
549,28	34347,34
549,48	34926,91
549,68	34027,85
549,88	34670,92
550,08	34263,37
550,28	34494,79
550,48	34218,32
550,68	34713,92
550,88	34271,56
551,08	34419,02
551,279	34292,04
551,479	34158,92
551,679	34703,68
551,879	34341,19
552,079	34431,3
552,278	34124,11
552,478	34103,63
552,678	34406,73
552,878	34400,58
553,077	34554,18
553,277	33421,66
553,477	34632
553,676	34490,7
553,876	34478,41
554,076	34738,5
554,275	34761,03
554,475	34120,01
554,674	34822,47
554,874	34320,71
555,074	34443,59
555,273	34191,69
555,473	34187,6
555,672	33810,77
555,872	33976,65
556,071	33839,44
556,271	33847,63
556,47	34050,38
556,67	33907,02
556,869	33675,6
557,068	33444,18
557,268	32770,4
557,467	32790,88
557,667	32762,21
557,866	32956,77
558,065	32551,27
558,265	32084,33
558,464	31930,73
558,663	32747,87
558,863	32188,78
559,062	32891,23
559,261	32409,96
559,461	33485,14
559,66	32567,65
559,859	32528,74
560,058	32592,23
560,258	33225,05
560,457	32645,48
560,656	33018,21
560,855	32113
561,054	32549,22
561,253	31705,46
561,453	32598,37
561,652	31861,1
561,851	32770,4
562,05	32500,07
562,249	32833,89
562,448	32682,34
562,647	32549,22
562,846	32041,32
563,045	32356,71
563,244	31517,04
563,443	31918,45
563,642	31068,54
563,841	31723,89
564,04	31691,12
564,239	32196,97
564,438	31316,34
564,637	31994,22
564,836	31467,89
565,035	30900,61
565,234	31498,61
565,432	31209,85
565,631	31050,11
565,83	31508,85
566,029	31437,17
566,228	32002,41
566,427	31627,63
566,625	31388,02
566,824	30800,26
567,023	31342,97
567,222	30527,88
567,42	31009,15
567,619	30476,68
567,818	30689,67
568,016	30538,12
568,215	30701,95
568,414	30534,02
568,612	30837,12
568,811	30744,96
569,01	30605,7
569,208	30167,43
569,407	30083,47
569,605	29675,92
569,804	30128,52
570,002	29440,4
570,201	29503,89
570,4	29229,46
570,598	29280,66
570,797	29393,3
570,995	29434,26
571,193	29413,78
571,392	29960,59
571,59	29032,86
571,789	29852,05
571,987	29483,41
572,186	29819,28
572,384	29272,47
572,582	29782,41
572,781	29606,29
572,979	29327,77
573,177	29428,12
573,376	29434,26
573,574	28940,7
573,772	29055,39
573,971	28783,01
574,169	29133,21
574,367	28438,95
574,565	28805,53
574,763	28326,31
574,962	28787,1
575,16	28402,08
575,358	28965,28
575,556	28416,42
575,754	28555,68
575,952	28201,38
576,151	28772,77
576,349	28293,54
576,547	28819,87
576,745	28549,54
576,943	28359,08
577,141	28445,09
577,339	28696,99
577,537	28422,56
577,735	28266,92
577,933	28041,64
578,131	28797,34
578,329	28094,89
578,527	28305,83
578,725	28385,7
578,923	29303,19
579,121	28852,64
579,319	29206,94
579,516	28912,03
579,714	29206,94
579,912	28975,52
580,11	29501,84
580,308	29663,63
580,506	30149
580,704	29540,75
580,901	30937,47
581,099	30349,7
581,297	30099,85
581,495	30439,81
581,692	31152,51
581,89	30353,8
582,088	30894,46
582,285	30394,76
582,483	30962,04
582,681	31224,18
582,878	30683,52
583,076	30896,51
583,274	31603,06
583,471	30964,09
583,669	31170,94
583,866	30779,78
584,064	31043,96
584,262	30073,23
584,459	30851,45
584,657	30345,61
584,854	30880,13
585,052	30286,22
585,249	30962,04
585,447	31013,24
585,644	30851,45
585,841	30972,28
586,039	31738,23
586,236	30787,97
586,434	30728,58
586,631	31103,35
586,828	30845,31
587,026	30378,37
587,223	30783,87
587,42	29954,44
587,618	29057,43
587,815	28178,86
588,012	28111,27
588,21	27718,06
588,407	27965,87
588,604	27552,18
588,801	27093,43
588,999	27025,85
589,196	27820,46
589,393	28262,82
589,59	28412,32
589,787	28262,82
589,984	28264,87
590,182	28275,11
590,379	28785,05
590,576	28422,56
590,773	28477,86
590,97	28154,28
591,167	28533,15
591,364	28156,33
591,561	28748,19
591,758	28144,04
591,955	28477,86
592,152	28774,81
592,349	29020,57
592,546	28752,29
592,743	29059,48
592,94	28330,41
593,137	28826,01
593,334	28944,8
593,531	28473,76
593,727	28424,61
593,924	28758,43
594,121	28297,64
594,318	28322,21
594,515	28404,13
594,712	29061,53
594,908	28195,24
595,105	28500,39
595,302	27791,79
595,499	28119,46
595,696	28236,2
595,892	28907,93
596,089	28285,35
596,286	28420,52
596,482	28103,08
596,679	28711,33
596,876	28441
597,072	27980,2
597,269	28180,9
597,466	27992,49
597,662	27621,81
597,859	27644,34
598,055	27816,36
598,252	28314,02
598,448	27689,39
598,645	27779,5
598,841	27533,75
599,038	27851,18
599,234	27515,31
599,431	27242,93
599,627	27509,17
599,824	27763,12
600,02	27630
600,217	27548,08
600,413	27247,03
600,609	27294,13
600,806	27001,27
601,002	27623,86
601,198	27171,25
601,395	26788,28
601,591	27056,57
601,787	27400,63
601,984	27331
602,18	27310,52
602,376	26970,55
602,572	27603,38
602,769	27591,09
602,965	27474,35
603,161	28502,43
603,357	28103,08
603,553	27449,78
603,75	28242,34
603,946	27906,48
604,142	28072,36
604,338	27630
604,534	27947,43
604,73	27482,55
604,926	27351,48
605,122	27640,24
605,318	28137,9
605,514	27572,66
605,71	27728,3
605,906	27816,36
606,102	28465,57
606,298	27517,36
606,494	27949,48
606,69	28475,81
606,886	28692,9
607,082	27728,3
607,278	28719,52
607,474	28311,97
607,67	28236,2
607,866	27924,91
608,062	27892,14
608,257	27857,32
608,453	28025,26
608,649	27810,22
608,845	28219,81
609,041	27656,62
609,236	28019,11
609,432	27675,06
609,628	27941,29
609,824	27799,98
610,019	27380,15
610,215	27877,8
610,411	28856,73
610,606	28088,74
610,802	28848,54
610,998	28535,2
611,193	28729,76
611,389	27865,52
611,584	27955,63
611,78	28287,4
611,976	28676,51
612,171	28883,36
612,367	29368,73
612,562	28758,43
612,758	28895,64
612,953	28412,32
613,149	29127,06
613,344	28475,81
613,539	29368,73
613,735	28971,42
613,93	29577,62
614,126	29409,68
614,321	29759,89
614,517	28993,95
614,712	29196,7
614,907	29077,91
615,103	29215,13
615,298	28758,43
615,493	29292,95
615,688	28828,06
615,884	29284,76
616,079	28834,21
616,274	28981,66
616,47	29256,09
616,665	29628,82
616,86	29557,14
617,055	30200,2
617,25	30384,52
617,445	30826,88
617,641	30382,47
617,836	30650,75
618,031	29864,33
618,226	30284,17
618,421	30239,11
618,616	30839,17
618,811	30296,46
619,006	30650,75
619,201	30466,44
619,396	30744,96
619,591	29999,5
619,786	30607,75
619,981	30261,64
620,176	30570,88
620,371	30796,16
620,566	31199,61
620,761	30108,04
620,956	30923,13
621,151	30005,64
621,346	30275,98
621,541	30005,64
621,735	30318,98
621,93	29798,8
622,125	30271,88
622,32	29661,58
622,515	29573,52
622,709	28484
622,904	28940,7
623,099	29290,9
623,294	29452,69
623,488	28840,35
623,683	28707,23
623,878	28090,79
624,072	28719,52
624,267	28336,55
624,462	28006,83
624,656	28242,34
624,851	27906,48
625,046	27460,02
625,24	27998,63
625,435	27691,44
625,629	27685,29
625,824	27638,19
626,018	28297,64
626,213	27247,03
626,407	27842,99
626,602	27142,58
626,796	26599,87
626,991	26395,07
627,185	25754,06
627,38	25283,03
627,574	25225,68
627,768	25119,19
627,963	25524,69
628,157	25190,87
628,352	25739,72
628,546	24846,81
628,74	26036,68
628,935	25070,04
629,129	24748,51
629,323	24228,32
629,517	24723,93
629,712	24689,12
629,906	24666,59
630,1	24404,45
630,294	25180,63
630,489	25162,2
630,683	25811,4
630,877	25057,75
631,071	25074,13
631,265	25024,98
631,459	25428,43
631,653	25508,3
631,848	25799,12
632,042	25547,22
632,236	25790,92
632,43	25903,56
632,624	25883,08
632,818	25518,54
633,012	25795,02
633,206	25680,33
633,4	25850,31
633,594	26036,68
633,788	26278,34
633,982	26221
634,176	26255,81
634,369	25827,79
634,563	26149,32
634,757	26397,12
634,951	27007,42
635,145	26345,92
635,339	26636,73
635,533	26030,54
635,726	26800,57
635,92	25856,46
636,114	26778,04
636,308	26354,12
636,501	26941,88
636,695	26835,39
636,889	26837,44
637,083	26589,63
637,276	27052,47
637,47	26911,16
637,664	27093,43
637,857	27263,41
638,051	27148,73
638,244	26833,34
638,438	26835,39
638,632	26626,5
638,825	26171,85
639,019	26470,85
639,212	26479,04
639,406	26749,37
639,599	26911,16
639,793	26309,06
639,986	25733,58
640,18	26114,5
640,373	26491,33
640,567	26450,37
640,76	26692,03
640,954	26171,85
641,147	25940,43
641,34	26325,44
641,534	27144,63
641,727	26116,55
641,92	26780,09
642,114	26706,37
642,307	26839,48
642,5	27136,44
642,694	26489,28
642,887	26141,13
643,08	26667,45
643,273	25784,78
643,467	26042,82
643,66	26327,49
643,853	26819
644,046	26313,16
644,239	26597,82
644,432	26536,38
644,626	26016,2
644,819	25569,74
645,012	25848,27
645,205	25659,85
645,398	26180,04
645,591	25745,87
645,784	26141,13
645,977	25612,75
646,17	25819,6
646,363	25313,75
646,556	25106,9
646,749	25063,89
646,942	25287,12
647,135	24875,48
647,328	24642,01
647,521	24576,48
647,714	24662,49
647,907	24773,08
648,099	25117,14
648,292	25258,45
648,485	25102,81
648,678	24183,27
648,871	24295,91
649,064	24166,88
649,256	24713,69
649,449	23994,86
649,642	24795,61
649,835	24701,4
650,027	25373,14
650,22	24934,87
650,413	24961,5
650,605	24607,2
650,798	24801,75
650,991	24420,83
651,183	24691,16
651,376	24222,18
651,568	24361,44
651,761	24553,95
651,954	24611,29
652,146	24627,68
652,339	24846,81
652,531	25145,81
652,724	24820,19
652,916	24930,78
653,109	24904,15
653,301	24889,82
653,494	25098,71
653,686	24859,1
653,879	24867,29
654,071	24373,73
654,263	24205,8
654,456	24521,18
654,648	24140,26
654,84	23308,79
655,033	23585,26
655,225	22874,62
655,417	22045,19
655,61	21389,84
655,802	21094,93
655,994	20296,22
656,186	20783,64
656,379	20943,38
656,571	22153,73
656,763	22151,68
656,955	22479,36
657,148	22600,19
657,34	23224,82
657,532	22833,66
657,724	23155,19
657,916	23081,46
658,108	23542,25
658,3	23425,52
658,492	24136,17
658,684	23581,17
658,876	24242,66
659,068	24162,79
659,26	24170,98
659,452	24498,66
659,644	24658,4
659,836	24439,26
660,028	25008,6
660,22	24293,86
660,412	24791,52
660,604	24117,73
660,796	24820,19
660,988	24459,74
661,18	24279,52
661,372	24484,32
661,563	24533,47
661,755	24015,33
661,947	24809,95
662,139	24728,03
662,331	24670,68
662,522	24037,86
662,714	24447,46
662,906	24308,19
663,097	24058,34
663,289	24189,41
663,481	24312,29
663,673	23792,11
663,864	24187,36
664,056	23788,01
664,247	24517,09
664,439	23833,07
664,631	23837,16
664,822	24099,3
665,014	24951,26
665,205	24492,51
665,397	24089,06
665,588	23671,28
665,78	23759,34
665,971	23697,9
666,163	23419,38
666,354	23370,22
666,546	23708,14
666,737	23730,67
666,929	24003,05
667,12	23824,87
667,311	23751,15
667,503	23790,06
667,694	23998,95
667,885	23693,8
668,077	24021,48
668,268	23681,52
668,459	23712,24
668,651	23521,77
668,842	23962,09
669,033	23314,93
669,224	23544,3
669,416	23566,83
669,607	23765,48
669,798	23495,15
669,989	23575,02
670,18	23292,4
670,371	23515,63
670,563	23214,58
670,754	23796,2
670,945	23263,73
671,136	23816,68
671,327	23816,68
671,518	23321,07
671,709	22843,9
671,9	23214,58
672,091	23427,57
672,282	23568,88
672,473	22905,34
672,664	23462,38
672,855	22960,63
673,046	23161,33
673,237	22796,79
673,428	23183,86
673,619	23421,42
673,809	23241,2
674	22350,34
674,191	22716,92
674,382	22489,6
674,573	22749,69
674,764	22391,3
674,954	23067,13
675,145	23067,13
675,336	23280,11
675,527	23312,88
675,717	23128,56
675,908	22714,87
676,099	23423,47
676,289	23015,93
676,48	22776,31
676,671	22415,87
676,861	22594,04
677,052	22323,71
677,243	22284,8
677,433	21967,37
677,624	22219,27
677,814	22233,6
678,005	22632,96
678,195	22120,96
678,386	22331,9
678,576	21996,04
678,767	22338,05
678,957	22182,4
679,148	22448,64
679,338	22237,7
679,529	22161,92
679,719	21867,02
679,909	22278,66
680,1	21979,65
680,29	22495,74
680,481	22266,37
680,671	22669,82
680,861	21920,26
681,052	22112,77
681,242	21731,85
681,432	22295,04
681,622	21944,84
681,813	21817,86
682,003	22010,37
682,193	22653,44
682,383	22682,11
682,573	22123,01
682,764	21598,73
682,954	22307,33
683,144	21971,46
683,334	22458,88
683,524	21910,02
683,714	22104,58
683,904	21803,53
684,094	22235,65
684,284	21938,69
684,474	22481,41
684,664	22391,3
684,854	22102,53
685,044	21488,14
685,234	21910,02
685,424	21803,53
685,614	21545,48
685,804	20877,85
685,994	20245,02
686,184	19546,67
686,374	18008,64
686,564	16095,84
686,753	14572,15
686,943	12808,85
687,133	12180,12
687,323	12153,5
687,513	12745,36
687,702	12802,71
687,892	13574,79
688,082	13617,8
688,272	14019,2
688,461	13671,04
688,651	13294,22
688,841	12892,82
689,03	13431,43
689,22	13148,81
689,41	13750,92
689,599	13505,16
689,789	14006,91
689,979	13730,44
690,168	14676,6
690,358	14410,36
690,547	15184,49
690,737	15088,24
690,926	15782,5
691,116	15245,93
691,305	16099,94
691,495	16136,8
691,684	17007,19
691,874	17166,93
692,063	17621,58
692,252	17293,9
692,442	18031,17
692,631	17551,95
692,82	18020,93
693,01	17521,23
693,199	18039,36
693,388	17445,45
693,578	17807,94
693,767	17578,57
693,956	17664,58
694,146	17703,5
694,335	17859,14
694,524	17713,74
694,713	17975,88
694,902	17949,25
695,092	18313,79
695,281	17959,49
695,47	18639,42
695,659	18399,8
695,848	18858,55
696,037	18745,91
696,226	19104,31
696,415	18811,45
696,604	19231,28
696,793	18997,81
696,982	18860,6
697,171	18700,86
697,36	19429,93
697,549	19292,72
697,738	19298,86
697,927	18661,94
698,116	19450,41
698,305	18788,92
698,494	19268,14
698,683	18831,93
698,872	18876,98
699,061	18653,75
699,25	18444,86
699,438	18618,94
699,627	18784,82
699,816	18348,61
700,005	18555,45
700,193	18453,05
700,382	18350,65
700,571	17887,81
700,76	18188,86
700,948	18457,15
701,137	18252,35
701,326	18293,31
701,514	18229,82
701,703	17982,02
701,892	17891,91
702,08	17920,58
702,269	18364,99
702,457	18082,37
702,646	18498,11
702,834	18498,11
703,023	18293,31
703,212	18420,28
703,4	18643,51
703,589	18123,33
703,777	18774,58
703,965	18172,48
704,154	18653,75
704,342	18999,86
704,531	18770,49
704,719	18446,91
704,907	18688,57
705,096	18248,25
705,284	18264,64
705,472	18285,12
705,661	18809,4
705,849	18602,55
706,037	18199,1
706,226	17431,12
706,414	17621,58
706,602	17867,33
706,79	18612,79
706,979	18336,32
707,167	18338,37
707,355	18561,59
707,543	19083,83
707,731	18565,69
707,919	18655,8
708,107	17758,79
708,296	17830,47
708,484	17873,48
708,672	18408
708,86	17914,44
709,048	18262,59
709,236	18469,44
709,424	18250,3
709,612	18264,64
709,8	18197,06
709,988	17547,85
710,176	17318,48
710,364	17787,46
710,551	18008,64
710,739	17457,74
710,927	18049,6
711,115	17963,59
711,303	17744,45
711,491	17580,62
711,679	17754,69
711,866	17275,47
712,054	17902,15
712,242	17424,97
712,43	17922,63
712,617	17355,34
712,805	17435,21
712,993	17875,52
713,181	17431,12
713,368	16861,78
713,556	17576,52
713,744	16761,43
713,931	17660,49
714,119	17103,44
714,306	17603,14
714,494	17211,98
714,682	17128,02
714,869	17099,34
715,057	16849,49
715,244	16745,05
715,432	17537,61
715,619	16710,23
715,807	16859,73
715,994	16585,3
716,182	16380,51
716,369	15354,48
716,556	15270,51
716,744	14854,77
716,931	14600,82
717,119	13820,55
717,306	13730,44
717,493	13167,24
717,681	13431,43
717,868	12851,86
718,055	12739,22
718,242	12186,27
718,43	12257,95
718,617	11547,3
718,804	11469,48
718,991	11242,15
719,179	11213,48
719,366	11301,54
719,553	11276,97
719,74	11164,33
719,927	11127,47
720,114	10615,48
720,301	11057,84
720,488	10984,11
720,676	11848,35
720,863	11704,99
721,05	12212,89
721,237	12665,49
721,424	13224,59
721,611	13402,76
721,798	13236,88
721,985	13189,77
722,172	13816,45
722,358	13312,65
722,545	13269,64
722,732	12798,61
722,919	13329,03
723,106	12888,72
723,293	12987,02
723,48	12268,19
723,667	12364,44
723,853	11745,95
724,04	12311,19
724,227	12014,24
724,414	12001,95
724,6	11768,48
724,787	11940,51
724,974	11522,73
725,161	12044,96
725,347	11831,97
725,534	12294,81
725,72	11725,47
725,907	11899,55
726,094	11500,2
726,28	11778,72
726,467	11391,66
726,653	11836,06
726,84	11305,64
727,027	11952,8
727,213	11522,73
727,4	11864,74
727,586	11338,41
727,773	11543,21
727,959	11379,37
728,145	11725,47
728,332	11547,3
728,518	11999,9
728,705	11606,69
728,891	11461,29
729,077	11395,75
729,264	11582,12
729,45	11680,42
729,636	12010,14
729,823	11606,69
730,009	12167,84
730,195	11772,58
730,382	11866,78
730,568	11637,41
730,754	11672,23
730,94	11268,78
731,126	11991,71
731,313	11549,35
731,499	11952,8
731,685	11649,7
731,871	12419,74
732,057	12259,99
732,243	12642,96
732,429	12288,67
732,615	12552,85
732,801	12565,14
732,987	12663,44
733,173	12696,21
733,359	13204,11
733,545	13001,36
733,731	13056,65
733,917	13073,04
734,103	13410,95
734,289	12980,88
734,475	13382,28
734,661	13130,38
734,847	13572,74
735,033	13382,28
735,219	13173,39
735,404	13273,74
735,59	13329,03
735,776	12917,39
735,962	12874,38
736,148	13001,36
736,333	13120,14
736,519	13013,65
736,705	13392,52
736,89	13122,19
737,076	13204,11
737,262	12606,1
737,447	13550,21
737,633	13281,93
737,819	13372,04
738,004	13095,57
738,19	13247,12
738,375	12798,61
738,561	13195,92
738,747	13075,09
738,932	12987,02
739,118	12901,01
739,303	12851,86
739,489	12860,05
739,674	12612,24
739,859	12708,5
740,045	13036,17
740,23	12950,16
740,416	13015,69
740,601	12868,24
740,786	12923,54
740,972	13167,24
741,157	13437,58
741,342	12649,11
741,528	12827,28
741,713	12624,53
741,898	12724,88
742,084	12276,38
742,269	12690,07
742,454	12212,89
742,639	12812,95
742,824	12409,5
743,01	12968,59
743,195	12614,29
743,38	13275,79
743,565	12624,53
743,75	12728,98
743,935	12776,08
744,12	13079,18
744,305	12493,46
744,49	12581,53
744,675	12366,49
744,86	12323,48
745,045	12364,44
745,23	12329,63
745,415	12583,57
745,6	12847,76
745,785	12655,25
745,97	13126,29
746,155	12237,47
746,34	12774,03
746,525	12511,89
746,71	12556,95
746,895	12024,48
747,079	12251,8
747,264	11913,89
747,449	12352,15
747,634	12059,29
747,819	12157,6
748,003	11975,33
748,188	12329,63
748,373	12137,12
748,557	12356,25
748,742	12214,94
748,927	12354,2
749,111	12354,2
749,296	12149,4
749,481	11594,4
749,665	11696,8
749,85	11274,92
750,034	11885,22
750,219	11807,39
750,404	12044,96
750,588	11711,14
750,773	11737,76
750,957	11745,95
751,141	11932,32
751,326	11627,17
751,51	12057,25
751,695	11530,92
751,879	11666,08
752,064	11387,56
752,248	11512,49
752,432	11385,51
752,617	11553,45
752,801	11262,63
752,985	11489,96
753,17	11170,47
753,354	10971,82
753,538	11582,12
753,722	11539,11
753,907	11207,34
754,091	11477,67
754,275	11176,62
754,459	11616,93
754,643	11199,15
754,828	11512,49
755,012	11233,96
755,196	11510,44
755,38	10826,42
755,564	11217,58
755,748	11068,08
755,932	11588,26
756,116	10963,63
756,3	10984,11
756,484	10685,11
756,668	10740,4
756,852	10476,21
757,036	10660,53
757,22	10199,74
757,404	10500,79
757,588	10060,48
757,772	10701,49
757,956	10830,51
758,14	10615,48
758,323	10527,41
758,507	10486,45
758,691	10228,41
758,875	10037,95
759,059	9470,66
759,242	8942,28
759,426	7613,15
759,61	6787,82
759,794	5255,94
759,977	4166,42
760,161	2734,89
760,345	1964,86
760,528	1018,69
760,712	820,04
760,895	416,59
761,079	344,91
761,263	156,5
761,446	187,22
761,63	318,29
761,813	371,54
761,997	457,55
762,18	578,38
762,364	494,41
762,547	322,38
762,731	205,65
762,914	176,98
763,098	109,4
763,281	121,68
763,464	107,35
763,648	121,68
763,831	179,03
764,015	176,98
764,198	105,3
764,381	236,37
764,564	236,37
764,748	379,73
764,931	400,21
765,114	820,04
765,297	861
765,481	1436,48
765,664	1663,8
765,847	2323,25
766,03	2370,35
766,213	3150,63
766,397	3261,22
766,58	4111,13
766,763	4236,05
766,946	5124,87
767,129	5286,66
767,312	6021,88
767,495	6437,62
767,678	6945,52
767,861	6994,67
768,044	7791,33
768,227	7979,74
768,41	8565,46
768,593	8962,76
768,776	9210,57
768,959	8895,18
769,142	9286,34
769,324	9466,56
769,507	9953,98
769,69	9792,19
769,873	10214,07
770,056	10171,07
770,239	10539,7
770,421	10277,56
770,604	10828,46
770,787	10621,62
770,97	11047,6
771,152	10859,18
771,335	11504,29
771,518	11109,04
771,7	11090,6
771,883	10992,3
772,066	11291,31
772,248	11424,42
772,431	12059,29
772,613	11874,98
772,796	11834,02
772,978	11811,49
773,161	12384,92
773,343	11643,56
773,526	11733,67
773,708	11803,3
773,891	12016,29
774,073	11704,99
774,256	12145,31
774,438	11571,88
774,621	11651,75
774,803	11311,78
774,985	11397,8
775,168	11020,97
775,35	11053,74
775,532	11356,84
775,715	11909,79
775,897	11217,58
776,079	11760,29
776,261	11879,07
776,444	12245,66
776,626	11971,23
776,808	12454,55
776,99	12176,03
777,173	11983,52
777,355	11610,79
777,537	11887,26
777,719	11729,57
777,901	11909,79
778,083	11397,8
778,265	11690,66
778,447	11455,14
778,629	11764,39
778,811	11412,14
778,993	11590,31
779,175	11715,23
779,357	11950,75
779,539	11430,57
779,721	11453,09
779,903	11041,45
780,085	11023,02
780,267	10814,13
780,449	11432,61
780,631	11209,39
780,812	11672,23
780,994	11238,06
781,176	11610,79
781,358	11322,02
781,54	11156,14
781,721	11131,56
781,903	11143,85
782,085	11219,63
782,267	11430,57
782,448	10740,4
782,63	11225,77
782,812	10691,25
782,993	10590,9
783,175	10492,6
783,357	10865,33
783,538	10857,14
783,72	10650,29
783,901	9855,68
784,083	9937,6
784,264	9790,14
784,446	9915,07
784,627	9575,11
784,809	10234,55
784,99	10154,68
785,172	10177,21
785,353	10005,18
785,535	10070,72
785,716	9999,04
785,897	9970,37
786,079	9872,06
786,26	10261,18
786,441	9781,95
786,623	9691,84
786,804	9392,84
786,985	9573,06
787,167	9329,35
787,348	9374,41
787,529	9059,02
787,71	9267,91
787,891	9198,28
788,073	9468,61
788,254	9122,51
788,435	9335,49
788,616	8913,61
788,797	9179,85
788,978	8921,81
789,159	9011,92
789,34	8757,97
789,522	8860,37
789,703	8553,17
789,884	8600,27
790,065	8241,88
790,246	8721,1
790,427	8510,16
790,607	8577,75
790,788	8067,8
790,969	8327,89
791,15	8116,95
791,331	8446,68
791,512	7930,59
791,693	8276,7
791,874	8248,02
792,054	8497,88
792,235	8067,8
792,416	8004,32
792,597	7680,74
792,778	7852,77
792,958	7817,95
793,139	8116,95
793,32	7912,16
793,5	8207,06
793,681	7848,67
793,862	8016,6
794,042	7951,07
794,223	7867,1
794,404	7617,25
794,584	7772,89
794,765	7346,92
794,945	7625,44
795,126	7412,45
795,306	7910,11
795,487	7434,98
795,667	7594,72
795,848	7260,9
796,028	7490,28
796,209	7142,12
796,389	7406,31
796,57	6957,8
796,75	7191,27
796,93	6843,12
797,111	6879,98
797,291	6787,82
797,471	7236,33
797,652	7181,03
797,832	7256,81
798,012	7430,88
798,192	7320,29
798,373	7138,02
798,553	7424,74
798,733	6968,04
798,913	6857,45
799,093	6767,34
799,274	7017,19
799,454	6556,4
799,634	7150,31
799,814	6765,29
799,994	6927,08
800,174	6290,17
800,354	6544,11
800,534	6208,25
800,714	6652,66
800,894	6707,95
801,074	6781,68
801,254	6288,12
801,434	6499,06
801,614	6396,66
801,794	6392,56
801,974	6322,93
802,154	6372,08
802,334	6210,29
802,514	6384,37
802,693	6210,29
802,873	6437,62
803,053	6001,4
803,233	6251,25
803,413	6251,25
803,592	6230,77
803,772	6247,16
803,952	6464,24
804,131	6214,39
804,311	6376,18
804,491	6275,83
804,67	6126,33
804,85	5724,93
805,03	5874,43
805,209	5714,69
805,389	5952,25
805,568	5808,89
805,748	5980,92
805,928	5784,32
806,107	6238,97
806,287	6105,85
806,466	6062,84
806,646	6042,36
806,825	6064,89
807,004	5632,77
807,184	5978,87
807,363	5923,58
807,543	6075,13
807,722	5819,13
807,901	5729,02
808,081	5788,41
808,26	5761,79
808,439	5315,33
808,619	5819,13
808,798	5591,81
808,977	5718,78
809,156	5444,35
809,336	5507,84
809,515	5423,87
809,694	5513,99
809,873	5370,63
810,052	5286,66
810,231	5247,75
810,411	5456,64
810,59	5231,37
810,769	5440,26
810,948	5139,21
811,127	5182,21
811,306	5208,84
811,485	5045
811,664	4932,36
811,843	5174,02
812,022	4717,33
812,201	5004,04
812,38	4780,81
812,559	5112,58
812,737	4600,59
812,916	4821,77
813,095	4537,1
813,274	4510,48
813,453	4344,6
813,632	4420,37
813,811	3965,72
813,989	3955,48
814,168	3722,01
814,347	3898,14
814,526	3715,87
814,704	3822,36
814,883	3423,01
815,062	3590,94
815,24	3302,18
815,419	3431,2
815,598	2939,69
815,776	3074,85
815,955	2896,68
816,133	3083,05
816,312	2804,52
816,49	2751,28
816,669	2501,42
816,847	2847,53
817,026	2505,52
817,204	2634,54
817,383	2394,93
817,561	2831,15
817,74	2546,48
817,918	2661,16
818,097	2702,12
818,275	2745,13
818,453	2442,03
818,632	2626,35
818,81	2339,63
818,988	2474,8
819,167	2458,42
819,345	2581,29
819,523	2308,91
819,701	2706,22
819,879	2698,03
820,058	2769,71
820,236	2370,35
820,414	2769,71
820,592	2564,91
820,77	3126,05
820,948	2921,26
821,127	3322,66
821,305	3085,09
821,483	3146,53
821,661	2978,6
821,839	3435,3
822,017	2898,73
822,195	3162,92
822,373	2908,97
822,551	2992,94
822,729	2693,93
822,907	2636,59
823,085	2200,37
823,262	2196,28
823,44	1727,29
823,618	1833,79
823,796	1526,59
823,974	1764,15
824,152	1874,74
824,329	2210,61
824,507	2046,77
824,685	2362,16
824,863	2331,44
825,04	2755,37
825,218	2908,97
825,396	2951,98
825,574	2812,71
825,751	2886,44
825,929	2900,78
826,107	2679,6
826,284	2583,34
826,462	3001,13
826,639	2573,1
826,817	2917,16
826,994	2671,4
827,172	2841,39
827,349	2685,74
827,527	2599,73
827,704	2433,84
827,882	2454,32
828,059	2167,6
828,237	2241,33
828,414	2122,55
828,591	2327,35
828,769	2114,36
828,946	2286,39
829,124	1936,18
829,301	2138,93
829,478	1856,31
829,655	2022,2
829,833	1827,64
830,01	2059,06
830,187	1887,03
830,364	2040,63
830,542	1932,09
830,719	2143,03
830,896	1805,11
831,073	2370,35
831,25	2048,82
831,427	2253,62
831,604	2145,08
831,782	2356,02
831,959	2183,99
832,136	2415,41
832,313	2237,24
832,49	1989,43
832,667	1809,21
832,844	1921,85
833,021	1817,4
833,198	2048,82
833,374	2102,07
833,551	2241,33
833,728	2089,78
833,905	2155,32
834,082	1891,13
834,259	2153,27
834,436	2020,15
834,612	2140,98
834,789	2122,55
834,966	2128,69
835,143	2171,7
835,319	2196,28
835,496	1964,86
835,673	2179,89
835,85	2161,46
836,026	2192,18
836,203	1954,62
836,38	2095,93
836,556	1864,5
836,733	2054,97
836,909	1903,42
837,086	2054,97
837,262	2077,49
837,439	2335,54
837,616	2136,88
837,792	2409,26
837,968	2071,35
838,145	2155,32
838,321	2114,36
838,498	2255,67
838,674	2009,91
838,851	2075,45
839,027	1895,22
839,203	2009,91
839,38	1958,71
839,556	2122,55
839,732	1956,66
839,909	2030,39
840,085	1899,32
840,261	2091,83
840,437	2145,08
840,614	2331,44
840,79	1891,13
840,966	2100,02
841,142	1893,18
841,318	2128,69
841,494	1854,27
841,671	1977,14
841,847	1856,31
842,023	1983,29
842,199	1758,01
842,375	1944,38
842,551	1762,11
842,727	2032,44
842,903	1729,34
843,079	1958,71
843,255	1729,34
843,431	1952,57
843,607	1835,83
843,783	2024,25
843,959	1794,87
844,134	1844,03
844,31	1782,59
844,486	1766,2
844,662	1655,61
844,838	1680,19
845,013	1469,25
845,189	1592,13
845,365	1641,28
845,541	1737,53
845,716	1602,36
845,892	1696,57
846,068	1682,24
846,244	1731,39
846,419	1667,9
846,595	1782,59
846,77	1547,07
846,946	1694,52
847,122	1542,97
847,297	1739,58
847,473	1624,89
847,648	1719,1
847,824	1375,04
847,999	1362,75
848,175	1409,86
848,35	1590,08
848,526	1401,66
848,701	1542,97
848,876	1368,9
849,052	1579,84
849,227	1477,44
849,403	1622,84
849,578	1338,18
849,753	1381,18
849,929	1211,2
850,104	1235,78
850,279	985,93
850,454	1192,77
850,63	1088,32
850,805	1133,38
850,98	922,44
851,155	1198,92
851,33	1061,7
851,505	1194,82
851,681	1063,75
851,856	1049,41
852,031	981,83
852,206	1002,31
852,381	985,93
852,556	1071,94
852,731	1004,36
852,906	1071,94
853,081	920,39
853,256	992,07
853,431	1088,32
853,606	1104,71
853,781	910,15
853,956	1033,03
854,131	865,1
854,305	949,06
854,48	705,35
854,655	664,4
854,83	492,37
855,005	523,09
855,18	533,33
855,354	582,48
855,529	555,85
855,704	691,02
855,879	676,68
856,053	873,29
856,228	897,86
856,403	947,01
856,577	836,42
856,752	959,3
856,926	920,39
857,101	934,73
857,276	922,44
857,45	836,42
857,625	789,32
857,799	803,66
857,974	760,65
858,148	926,54
858,323	693,07
858,497	906,06
858,672	774,99
858,846	817,99
859,02	734,03
859,195	754,51
859,369	764,75
859,543	721,74
859,718	713,55
859,892	936,78
860,066	844,62
860,241	848,71
860,415	742,22
860,589	746,31
860,763	613,2
860,938	727,88
861,112	617,29
861,286	615,24
861,46	584,52
861,634	762,7
861,808	535,37
861,982	678,73
862,157	551,76
862,331	676,68
862,505	586,57
862,679	664,4
862,853	570,19
863,027	633,68
863,201	516,94
863,375	629,58
863,549	521,04
863,722	564,04
863,896	475,98
864,07	498,51
864,244	529,23
864,418	553,8
864,592	508,75
864,766	471,89
864,939	541,52
865,113	562
865,287	467,79
865,461	529,23
865,634	457,55
865,808	506,7
865,982	394,06
866,156	492,37
866,329	361,3
866,503	361,3
866,676	183,12
866,85	226,13
867,024	254,8
867,197	242,51
867,371	256,85
867,544	217,94
867,718	219,99
867,891	330,58
868,065	301,9
868,238	336,72
868,412	320,34
868,585	383,82
868,759	303,95
868,932	420,69
869,105	439,12
869,279	469,84
869,452	392,02
869,625	355,15
869,799	287,57
869,972	281,43
870,145	328,53
870,319	297,81
870,492	353,1
870,665	336,72
870,838	379,73
871,011	265,04
871,185	400,21
871,358	328,53
871,531	295,76
871,704	301,9
871,877	283,47
872,05	308,05
872,223	269,14
872,396	299,86
872,569	310,1
872,742	283,47
872,915	252,75
873,088	306
873,261	287,57
873,434	346,96
873,607	230,23
873,78	228,18
873,953	271,19
874,126	244,56
874,299	265,04
874,471	211,79
874,644	160,59
874,817	279,38
874,99	150,36
875,163	244,56
875,335	215,89
875,508	250,71
875,681	246,61
875,853	246,61
876,026	181,07
876,199	211,79
876,371	205,65
876,544	230,23
876,717	230,23
876,889	240,47
877,062	193,36
877,234	164,69
877,407	197,46
877,579	258,9
877,752	199,51
877,924	252,75
878,097	203,6
878,269	154,45
878,442	185,17
878,614	179,03
878,786	181,07
878,959	219,99
879,131	133,97
879,303	176,98
879,476	115,54
879,648	185,17
879,82	140,12
879,993	172,88
880,165	123,73
880,337	125,78
880,509	158,55
880,681	197,46
880,854	101,2
881,026	121,68
881,198	138,07
881,37	109,4
881,542	95,06
881,714	84,82
881,886	111,44
882,058	156,5
882,23	15,19
882,402	164,69
882,574	179,03
882,746	156,5
882,918	68,44
883,09	195,41
883,262	164,69
883,434	142,16
883,606	113,49
883,778	148,31
883,95	111,44
884,122	95,06
884,293	52,05
884,465	140,12
884,637	136,02
884,809	107,35
884,98	105,3
885,152	107,35
885,324	154,45
885,496	140,12
885,667	209,75
885,839	107,35
886,011	123,73
886,182	52,05
886,354	70,48
886,525	170,83
886,697	56,15
886,869	37,72
887,04	58,2
887,212	88,92
887,383	111,44
887,555	41,81
887,726	103,25
887,897	56,15
888,069	-1,19
888,24	119,64
888,412	21,33
888,583	76,63
888,754	113,49
888,926	113,49
889,097	80,72
889,268	90,96
889,44	156,5
889,611	103,25
889,782	164,69
889,953	123,73
890,125	99,16
890,296	25,43
890,467	68,44
890,638	31,57
890,809	146,26
890,98	-1,19
891,151	131,92
891,323	56,15
891,494	97,11
891,665	56,15
891,836	131,92
892,007	41,81
892,178	66,39
892,349	56,15
892,52	129,88
892,691	129,88
892,862	31,57
893,032	45,91
893,203	54,1
893,374	58,2
893,545	50
893,716	37,72
893,887	74,58
894,057	-25,77
894,228	37,72
894,399	17,24
894,57	54,1
894,74	-15,53
894,911	7
895,082	80,72
895,253	93,01
895,423	41,81
895,594	80,72
895,764	74,58
895,935	-15,53
896,106	105,3
896,276	52,05
896,447	17,24
896,617	4,95
896,788	-46,25
896,958	90,96
897,129	119,64
897,299	-23,72
897,47	27,48
897,64	97,11
897,81	-7,34
897,981	-31,91
898,151	-23,72
898,322	13,14
898,492	66,39
898,662	80,72
898,832	-9,39
899,003	64,34
899,173	54,1
899,343	29,52
899,513	43,86
