Data from sun_USB4F104151__2__13-24-02-488.txt Node

Date: Fri Mar 08 13:24:02 EST 2024
User: lauri
Spectrometer: USB4F10415
Trigger mode: 4
Integration Time (sec): 1,000000E-3
Scans to average: 1
Electric dark correction enabled: true
Nonlinearity correction enabled: false
Boxcar width: 0
XAxis mode: Wavelengths
Number of Pixels in Spectrum: 3648
>>>>>Begin Spectral Data<<<<<
178,204	4,61
178,424	4,61
178,644	4,61
178,864	-83,45
179,084	12,8
179,304	6,66
179,524	31,23
179,744	41,47
179,964	53,76
180,184	-50,69
180,404	45,57
180,624	-30,21
180,844	-1,54
181,064	-50,69
181,283	-38,4
181,503	4,61
181,723	-11,78
181,943	-34,3
182,163	37,38
182,383	-19,97
182,602	55,81
182,822	12,8
183,042	0,51
183,262	53,76
183,482	2,56
183,701	-17,92
183,921	18,94
184,141	-112,13
184,361	-11,78
184,58	-34,3
184,8	31,23
185,02	35,33
185,239	29,18
185,459	14,85
185,679	-73,21
185,898	-7,68
186,118	31,23
186,338	53,76
186,557	68,09
186,777	27,14
186,997	-5,63
187,216	-67,07
187,436	53,76
187,655	-19,97
187,875	47,62
188,095	37,38
188,314	35,33
188,534	-40,45
188,753	-9,73
188,973	27,14
189,192	-22,02
189,412	35,33
189,631	39,42
189,851	-36,35
190,07	23,04
190,29	74,24
190,509	64
190,729	27,14
190,948	20,99
191,168	10,75
191,387	-58,88
191,607	66,05
191,826	-26,11
192,045	39,42
192,265	53,76
192,484	23,04
192,704	18,94
192,923	20,99
193,142	-44,54
193,362	-26,11
193,581	51,71
193,8	39,42
194,02	-5,63
194,239	-19,97
194,458	6,66
194,678	-17,92
194,897	80,38
195,116	-9,73
195,335	23,04
195,555	72,19
195,774	-17,92
195,993	-17,92
196,212	-19,97
196,432	37,38
196,651	-9,73
196,87	-58,88
197,089	18,94
197,308	6,66
197,528	27,14
197,747	-28,16
197,966	31,23
198,185	-11,78
198,404	-1,54
198,623	-5,63
198,842	31,23
199,062	47,62
199,281	-62,98
199,5	-44,54
199,719	-19,97
199,938	43,52
200,157	-34,3
200,376	43,52
200,595	47,62
200,814	-58,88
201,033	72,19
201,252	-1,54
201,471	6,66
201,69	29,18
201,909	88,57
202,128	-9,73
202,347	51,71
202,566	80,38
202,785	25,09
203,004	55,81
203,223	104,96
203,442	14,85
203,661	39,42
203,879	-34,3
204,098	37,38
204,317	-42,5
204,536	-19,97
204,755	-11,78
204,974	-56,83
205,193	2,56
205,411	47,62
205,63	35,33
205,849	-1,54
206,068	31,23
206,287	102,91
206,505	49,66
206,724	113,15
206,943	96,77
207,162	10,75
207,381	12,8
207,599	43,52
207,818	16,9
208,037	53,76
208,255	12,8
208,474	-11,78
208,693	20,99
208,911	23,04
209,13	-34,3
209,349	84,48
209,567	64
209,786	-9,73
210,005	2,56
210,223	-38,4
210,442	45,57
210,661	37,38
210,879	-19,97
211,098	33,28
211,316	-44,54
211,535	29,18
211,753	55,81
211,972	96,77
212,191	33,28
212,409	14,85
212,628	72,19
212,846	59,9
213,065	31,23
213,283	39,42
213,502	41,47
213,72	76,29
213,938	-11,78
214,157	43,52
214,375	39,42
214,594	10,75
214,812	-28,16
215,031	51,71
215,249	29,18
215,467	10,75
215,686	2,56
215,904	27,14
216,122	4,61
216,341	20,99
216,559	31,23
216,778	47,62
216,996	6,66
217,214	2,56
217,432	80,38
217,651	55,81
217,869	37,38
218,087	29,18
218,306	-19,97
218,524	-13,82
218,742	68,09
218,96	27,14
219,179	47,62
219,397	23,04
219,615	14,85
219,833	14,85
220,051	4,61
220,27	43,52
220,488	2,56
220,706	43,52
220,924	29,18
221,142	-83,45
221,36	78,33
221,578	53,76
221,796	47,62
222,015	-3,58
222,233	-30,21
222,451	53,76
222,669	6,66
222,887	-9,73
223,105	61,95
223,323	2,56
223,541	-30,21
223,759	72,19
223,977	29,18
224,195	20,99
224,413	37,38
224,631	29,18
224,849	29,18
225,067	41,47
225,285	0,51
225,503	39,42
225,721	80,38
225,939	37,38
226,157	59,9
226,375	-50,69
226,592	53,76
226,81	10,75
227,028	53,76
227,246	-50,69
227,464	25,09
227,682	55,81
227,9	61,95
228,117	23,04
228,335	12,8
228,553	84,48
228,771	-1,54
228,989	-54,78
229,206	-3,58
229,424	-32,26
229,642	-28,16
229,86	162,3
230,077	12,8
230,295	-1,54
230,513	-13,82
230,731	-26,11
230,948	-9,73
231,166	-28,16
231,384	-26,11
231,601	33,28
231,819	-17,92
232,037	123,39
232,254	-26,11
232,472	12,8
232,689	31,23
232,907	-17,92
233,125	-3,58
233,342	-26,11
233,56	64
233,777	-42,5
233,995	33,28
234,213	-13,82
234,43	-26,11
234,648	8,7
234,865	64
235,083	6,66
235,3	6,66
235,518	-34,3
235,735	-11,78
235,953	43,52
236,17	-1,54
236,388	31,23
236,605	-46,59
236,822	-26,11
237,04	-13,82
237,257	6,66
237,475	4,61
237,692	12,8
237,909	-1,54
238,127	64
238,344	51,71
238,562	14,85
238,779	72,19
238,996	20,99
239,214	-9,73
239,431	10,75
239,648	12,8
239,865	64
240,083	70,14
240,3	2,56
240,517	80,38
240,735	41,47
240,952	-17,92
241,169	47,62
241,386	-11,78
241,603	23,04
241,821	88,57
242,038	53,76
242,255	4,61
242,472	8,7
242,689	23,04
242,907	74,24
243,124	-46,59
243,341	23,04
243,558	37,38
243,775	-19,97
243,992	-42,5
244,209	-22,02
244,426	-17,92
244,643	33,28
244,86	14,85
245,078	10,75
245,295	-42,5
245,512	20,99
245,729	27,14
245,946	129,53
246,163	-19,97
246,38	113,15
246,597	2,56
246,814	8,7
247,031	23,04
247,248	72,19
247,464	-22,02
247,681	35,33
247,898	47,62
248,115	-17,92
248,332	-42,5
248,549	20,99
248,766	98,81
248,983	25,09
249,2	-1,54
249,417	41,47
249,633	-26,11
249,85	-3,58
250,067	123,39
250,284	12,8
250,501	8,7
250,717	-3,58
250,934	43,52
251,151	23,04
251,368	12,8
251,585	51,71
251,801	-36,35
252,018	45,57
252,235	-15,87
252,451	84,48
252,668	51,71
252,885	66,05
253,102	-17,92
253,318	82,43
253,535	-9,73
253,752	20,99
253,968	12,8
254,185	88,57
254,401	14,85
254,618	47,62
254,835	23,04
255,051	47,62
255,268	16,9
255,484	39,42
255,701	23,04
255,917	88,57
256,134	23,04
256,351	59,9
256,567	14,85
256,784	64
257	-1,54
257,217	55,81
257,433	-17,92
257,65	72,19
257,866	31,23
258,082	33,28
258,299	59,9
258,515	76,29
258,732	23,04
258,948	-42,5
259,165	-40,45
259,381	31,23
259,597	-42,5
259,814	55,81
260,03	-28,16
260,246	14,85
260,463	-1,54
260,679	53,76
260,895	-50,69
261,112	-1,54
261,328	6,66
261,544	59,9
261,761	35,33
261,977	33,28
262,193	14,85
262,409	25,09
262,626	61,95
262,842	27,14
263,058	-5,63
263,274	-30,21
263,49	39,42
263,707	-5,63
263,923	51,71
264,139	-9,73
264,355	-50,69
264,571	59,9
264,787	39,42
265,004	6,66
265,22	16,9
265,436	-73,21
265,652	-26,11
265,868	-48,64
266,084	-26,11
266,3	-32,26
266,516	76,29
266,732	72,19
266,948	14,85
267,164	39,42
267,38	-34,3
267,596	35,33
267,812	20,99
268,028	72,19
268,244	39,42
268,46	12,8
268,676	-26,11
268,892	-26,11
269,108	-26,11
269,324	18,94
269,54	23,04
269,756	10,75
269,972	-1,54
270,188	-17,92
270,403	23,04
270,619	6,66
270,835	-26,11
271,051	78,33
271,267	-3,58
271,483	14,85
271,698	35,33
271,914	80,38
272,13	6,66
272,346	47,62
272,562	-5,63
272,777	39,42
272,993	27,14
273,209	47,62
273,425	-26,11
273,64	-9,73
273,856	23,04
274,072	-28,16
274,287	-11,78
274,503	41,47
274,719	14,85
274,934	8,7
275,15	6,66
275,366	-22,02
275,581	-11,78
275,797	39,42
276,012	-19,97
276,228	55,81
276,444	-9,73
276,659	20,99
276,875	23,04
277,09	-26,11
277,306	-9,73
277,521	29,18
277,737	-38,4
277,952	78,33
278,168	-26,11
278,383	45,57
278,599	12,8
278,814	39,42
279,03	31,23
279,245	80,38
279,461	37,38
279,676	2,56
279,892	-9,73
280,107	47,62
280,322	14,85
280,538	18,94
280,753	-9,73
280,969	102,91
281,184	53,76
281,399	-28,16
281,615	37,38
281,83	-24,06
282,045	-42,5
282,26	88,57
282,476	53,76
282,691	113,15
282,906	14,85
283,122	14,85
283,337	14,85
283,552	47,62
283,767	-40,45
283,983	70,14
284,198	-19,97
284,413	31,23
284,628	18,94
284,843	23,04
285,058	-28,16
285,274	35,33
285,489	39,42
285,704	-11,78
285,919	-34,3
286,134	47,62
286,349	-34,3
286,564	35,33
286,779	2,56
286,995	-26,11
287,21	39,42
287,425	31,23
287,64	-19,97
287,855	74,24
288,07	-19,97
288,285	-17,92
288,5	47,62
288,715	2,56
288,93	23,04
289,145	23,04
289,36	4,61
289,575	37,38
289,79	4,61
290,004	61,95
290,219	4,61
290,434	-9,73
290,649	14,85
290,864	39,42
291,079	35,33
291,294	0,51
291,509	37,38
291,724	53,76
291,938	43,52
292,153	53,76
292,368	27,14
292,583	6,66
292,798	27,14
293,012	12,8
293,227	20,99
293,442	-44,54
293,657	-26,11
293,871	39,42
294,086	-5,63
294,301	70,14
294,516	-38,4
294,73	16,9
294,945	31,23
295,16	10,75
295,374	72,19
295,589	88,57
295,804	-26,11
296,018	16,9
296,233	-9,73
296,447	-17,92
296,662	29,18
296,877	43,52
297,091	-44,54
297,306	14,85
297,52	2,56
297,735	-32,26
297,949	39,42
298,164	-1,54
298,378	27,14
298,593	94,72
298,807	-11,78
299,022	12,8
299,236	39,42
299,451	43,52
299,665	-11,78
299,88	6,66
300,094	-3,58
300,309	82,43
300,523	-34,3
300,737	2,56
300,952	45,57
301,166	-58,88
301,381	8,7
301,595	-60,93
301,809	6,66
302,024	-1,54
302,238	-11,78
302,452	25,09
302,667	43,52
302,881	102,91
303,095	47,62
303,309	123,39
303,524	14,85
303,738	8,7
303,952	-9,73
304,166	-44,54
304,381	-11,78
304,595	-13,82
304,809	-15,87
305,023	59,9
305,237	29,18
305,452	35,33
305,666	39,42
305,88	47,62
306,094	37,38
306,308	109,05
306,522	-11,78
306,736	-1,54
306,95	-19,97
307,164	4,61
307,379	-9,73
307,593	18,94
307,807	8,7
308,021	10,75
308,235	14,85
308,449	82,43
308,663	20,99
308,877	23,04
309,091	-11,78
309,305	59,9
309,519	55,81
309,733	-79,36
309,947	2,56
310,161	-36,35
310,374	27,14
310,588	-1,54
310,802	-42,5
311,016	27,14
311,23	57,86
311,444	23,04
311,658	59,9
311,872	66,05
312,085	-36,35
312,299	4,61
312,513	14,85
312,727	0,51
312,941	45,57
313,154	-13,82
313,368	51,71
313,582	64
313,796	39,42
314,009	64
314,223	39,42
314,437	-9,73
314,651	-91,65
314,864	23,04
315,078	45,57
315,292	29,18
315,505	64
315,719	6,66
315,933	76,29
316,146	37,38
316,36	14,85
316,573	47,62
316,787	37,38
317,001	47,62
317,214	104,96
317,428	20,99
317,641	-9,73
317,855	31,23
318,068	72,19
318,282	31,23
318,495	70,14
318,709	84,48
318,922	20,99
319,136	76,29
319,349	35,33
319,563	90,62
319,776	78,33
319,99	64
320,203	35,33
320,417	102,91
320,63	90,62
320,843	47,62
321,057	27,14
321,27	-60,93
321,483	39,42
321,697	137,73
321,91	61,95
322,124	74,24
322,337	29,18
322,55	31,23
322,763	59,9
322,977	25,09
323,19	70,14
323,403	72,19
323,617	47,62
323,83	115,2
324,043	104,96
324,256	109,05
324,469	100,86
324,683	37,38
324,896	109,05
325,109	178,69
325,322	166,4
325,535	195,07
325,748	195,07
325,962	219,64
326,175	215,55
326,388	174,59
326,601	252,41
326,814	223,74
327,027	240,12
327,24	145,92
327,453	176,64
327,666	274,94
327,879	293,37
328,092	346,62
328,305	244,22
328,518	299,52
328,731	309,76
328,944	227,84
329,157	326,14
329,37	367,1
329,583	369,15
329,796	334,33
330,009	332,28
330,222	307,71
330,435	305,66
330,648	293,37
330,861	299,52
331,073	350,71
331,286	315,9
331,499	320
331,712	348,67
331,925	326,14
332,138	305,66
332,35	328,19
332,563	414,2
332,776	334,33
332,989	295,42
333,202	309,76
333,414	326,14
333,627	449,02
333,84	367,1
334,053	315,9
334,265	338,43
334,478	328,19
334,691	387,58
334,903	389,63
335,116	401,91
335,329	334,33
335,541	424,44
335,754	276,99
335,966	326,14
336,179	215,55
336,392	342,52
336,604	231,93
336,817	397,82
337,029	375,29
337,242	444,92
337,454	383,48
337,667	461,3
337,88	440,83
338,092	518,65
338,305	582,14
338,517	477,69
338,729	563,7
338,942	625,14
339,154	512,5
339,367	592,37
339,579	635,38
339,792	635,38
340,004	641,53
340,217	711,16
340,429	676,34
340,641	694,77
340,854	637,43
341,066	657,91
341,278	637,43
341,491	774,64
341,703	686,58
341,915	702,97
342,128	676,34
342,34	778,74
342,552	733,68
342,764	686,58
342,977	563,7
343,189	694,77
343,401	596,47
343,613	629,24
343,826	649,72
344,038	631,29
344,25	678,39
344,462	719,35
344,674	694,77
344,886	788,98
345,099	762,36
345,311	743,92
345,523	737,78
345,735	817,65
345,947	823,8
346,159	858,61
346,371	864,75
346,583	776,69
346,795	821,75
347,007	817,65
347,219	784,88
347,431	940,53
347,643	928,24
347,855	850,42
348,067	874,99
348,279	997,87
348,491	1028,59
348,703	1022,45
348,915	1047,02
349,127	1118,7
349,339	1118,7
349,551	1276,4
349,763	1094,13
349,975	1362,41
350,187	1167,85
350,399	1372,65
350,61	1112,56
350,822	1317,36
351,034	1122,8
351,246	1077,74
351,458	1081,84
351,669	1358,32
351,881	1145,33
352,093	1364,46
352,305	1350,12
352,517	1440,23
352,728	1411,56
352,94	1520,1
353,152	1511,91
353,363	1661,41
353,575	1647,08
353,787	1796,58
353,999	1710,57
354,21	1858,02
354,422	1645,03
354,633	1858,02
354,845	1399,27
355,057	1546,73
355,268	1436,14
355,48	1438,19
355,692	1284,59
355,903	1260,01
356,115	1030,64
356,326	1108,46
356,538	1075,7
356,749	1006,06
356,961	911,86
357,172	846,32
357,384	922,1
357,595	973,3
357,807	905,71
358,018	1069,55
358,23	1128,94
358,441	1403,37
358,653	1505,77
358,864	1724,9
359,075	1677,8
359,287	1765,86
359,498	1710,57
359,709	1710,57
359,921	1624,55
360,132	1749,48
360,344	1640,93
360,555	1739,24
360,766	1651,17
360,977	1788,39
361,189	1808,87
361,4	1907,17
361,611	1868,26
361,823	2079,2
362,034	2013,67
362,245	2222,56
362,456	2208,22
362,667	2378,2
362,879	2353,63
363,09	2404,83
363,301	2480,6
363,512	2568,66
363,723	2357,72
363,935	2904,53
364,146	2636,25
364,357	2922,96
364,568	2841,04
364,779	3234,25
364,99	3201,49
365,201	3494,35
365,412	3381,71
365,623	3520,97
365,834	3494,35
366,045	3729,86
366,256	3520,97
366,467	3658,18
366,678	3543,5
366,889	3443,15
367,1	3371,47
367,311	3523,02
367,522	3250,64
367,733	3424,72
367,944	3324,37
368,155	3625,42
368,366	3611,08
368,577	3787,21
368,788	3779,01
368,999	3799,49
369,209	3617,22
369,42	3946,95
369,631	3815,88
369,842	3824,07
370,053	3647,94
370,264	3557,83
370,474	3520,97
370,685	3668,42
370,896	3488,2
371,107	3639,75
371,317	3336,65
371,528	3181,01
371,739	3047,89
371,95	3111,38
372,16	3054,03
372,371	2783,7
372,582	2816,47
372,792	2779,61
373,003	2513,37
373,214	2765,27
373,424	2550,23
373,635	2693,59
373,846	2789,85
374,056	2994,64
374,267	2812,37
374,477	2988,5
374,688	3283,41
374,898	3299,79
375,109	3463,63
375,319	3592,65
375,53	3819,97
375,74	4004,29
375,951	3865,03
376,161	4123,07
376,372	4389,31
376,582	4565,43
376,793	4614,59
377,003	4942,26
377,214	4977,08
377,424	5061,04
377,635	5052,85
377,845	4614,59
378,055	4592,06
378,266	4813,24
378,476	4311,49
378,686	4282,81
378,897	4010,43
379,107	4233,66
379,317	4028,87
379,528	4352,45
379,738	4309,44
379,948	4454,84
380,158	4280,77
380,369	4184,51
380,579	4067,78
380,789	3811,78
380,999	3555,79
381,21	3189,2
381,42	2855,38
381,63	2746,84
381,84	2542,04
382,05	2316,76
382,261	2025,95
382,471	2195,93
382,681	1946,08
382,891	2507,23
383,101	2585,05
383,311	2691,54
383,521	2839
383,731	3129,81
383,941	3158,48
384,151	3545,55
384,361	3625,42
384,571	3885,51
384,781	3776,97
384,991	4002,24
385,201	3643,85
385,411	4102,59
385,621	3774,92
385,831	3987,91
386,041	3934,66
386,251	4143,55
386,461	3848,65
386,671	3953,09
386,881	4012,48
387,091	3889,6
387,301	3867,08
387,511	4139,46
387,72	3930,56
387,93	4250,05
388,14	4241,86
388,35	4633,02
388,56	4780,47
388,769	4848,05
388,979	5175,73
389,189	5239,22
389,399	5437,87
389,609	5556,65
389,818	5591,47
390,028	5687,72
390,238	6003,11
390,447	6101,41
390,657	5740,97
390,867	5611,95
391,076	5253,55
391,286	5102
391,496	4321,73
391,705	4192,7
391,915	3545,55
392,125	3312,08
392,334	2763,22
392,544	2585,05
392,753	2394,59
392,963	2798,04
393,172	2886,1
393,382	3445,2
393,591	3652,04
393,801	4260,29
394,01	4415,93
394,22	5048,75
394,429	5054,9
394,639	5151,15
394,848	5071,28
395,058	4946,36
395,267	4420,03
395,477	4016,58
395,686	4012,48
395,895	3768,77
396,105	3570,12
396,314	3566,03
396,524	3709,38
396,733	4477,37
396,942	4880,82
397,152	5595,56
397,361	5896,61
397,57	6740,38
397,78	6822,3
397,989	7739,79
398,198	8311,17
398,407	8526,21
398,617	8137,09
398,826	8630,65
399,035	8399,23
399,244	8518,01
399,453	8501,63
399,663	9234,8
399,872	9054,58
400,081	9582,96
400,29	8976,76
400,499	9439,6
400,708	8956,28
400,917	9531,76
401,127	9302,39
401,336	9329,01
401,545	9447,79
401,754	9458,03
401,963	9640,3
402,172	9709,93
402,381	9062,77
402,59	9759,08
402,799	9384,3
403,008	9419,12
403,217	9113,97
403,426	9345,39
403,635	9132,4
403,844	9171,32
404,053	9214,32
404,262	9191,8
404,471	9025,91
404,68	9361,78
404,888	8739,19
405,097	9034,1
405,306	9150,84
405,515	9181,56
405,724	8765,82
405,933	9324,91
406,142	9156,98
406,35	9013,62
406,559	9697,64
406,768	9748,84
406,977	9632,11
407,185	10039,65
407,394	9632,11
407,603	10076,52
407,812	10013,03
408,02	10119,53
408,229	9920,87
408,438	9865,58
408,646	9632,11
408,855	9517,42
409,064	9476,46
409,272	9529,71
409,481	9937,26
409,69	9707,88
409,898	9386,35
410,107	10049,89
410,315	9621,87
410,524	10522,98
410,733	10273,12
410,941	10543,46
411,15	10498,4
411,358	10819,93
411,567	10869,08
411,775	10797,4
411,984	10672,48
412,192	10852,7
412,401	10510,69
412,609	11030,87
412,818	10670,43
413,026	11000,15
413,234	10678,62
413,443	10922,33
413,651	10869,08
413,86	10682,72
414,068	10922,33
414,276	10828,12
414,485	10506,59
414,693	10625,37
414,901	10813,79
415,11	11231,57
415,318	10789,21
415,526	11174,23
415,734	10703,2
415,943	11034,97
416,151	10637,66
416,359	10754,4
416,567	10211,68
416,776	10312,03
416,984	10449,25
417,192	10541,41
417,4	10328,42
417,608	10260,84
417,817	10221,92
418,025	10473,82
418,233	10299,75
418,441	10322,27
418,649	10303,84
418,857	10918,23
419,065	10322,27
419,273	9955,69
419,481	10260,84
419,689	11057,5
419,897	10987,86
420,105	11170,13
420,313	10776,92
420,521	10795,36
420,729	10686,81
420,937	10897,75
421,145	10512,74
421,353	10535,26
421,561	10428,77
421,769	10574,17
421,977	10770,78
422,185	10082,66
422,393	10449,25
422,601	10670,43
422,809	10201,44
423,017	10293,6
423,224	10320,23
423,432	10490,21
423,64	10469,73
423,848	10873,18
424,056	10312,03
424,263	10840,41
424,471	10275,17
424,679	10361,19
424,887	10588,51
425,094	10725,72
425,302	10264,93
425,51	10649,95
425,718	10148,2
425,925	10365,28
426,133	10080,61
426,341	10459,49
426,548	10629,47
426,756	10277,22
426,964	10006,89
427,171	10676,57
427,379	10514,78
427,586	10387,81
427,794	10078,57
428,001	10408,29
428,209	10174,82
428,417	9691,5
428,624	9685,36
428,832	9447,79
429,039	8405,38
429,247	8028,55
429,454	8305,03
429,662	8622,46
429,869	7750,03
430,076	8452,48
430,284	8130,95
430,491	8890,74
430,699	9517,42
430,906	9830,76
431,114	10137,96
431,321	10830,17
431,528	10725,72
431,736	11475,28
431,943	12020,04
432,15	11112,79
432,358	11192,66
432,565	11549,01
432,772	11262,29
432,979	11419,99
433,187	11104,6
433,394	11293,01
433,601	11602,25
433,808	11868,49
434,016	11086,17
434,223	12022,09
434,43	12441,92
434,637	12441,92
434,844	12802,36
435,052	13314,36
435,259	12851,52
435,466	12937,53
435,673	12613,95
435,88	13617,46
436,087	13580,59
436,294	13619,5
436,501	12441,92
436,708	12548,42
436,915	12691,77
437,122	12751,17
437,329	12015,94
437,537	12241,22
437,743	11974,99
437,95	11807,05
438,157	12106,06
438,364	12663,1
438,571	12699,97
438,778	12556,61
438,985	13373,75
439,192	12761,41
439,399	13293,88
439,606	12775,74
439,813	13480,24
440,02	14151,98
440,227	13660,46
440,433	13558,07
440,64	13875,5
440,847	13916,46
441,054	14008,62
441,261	14684,45
441,467	14074,15
441,674	14637,34
441,881	14606,63
442,088	14749,98
442,294	14352,68
442,501	14536,99
442,708	14215,46
442,914	14825,76
443,121	14997,79
443,328	14526,75
443,534	15218,97
443,741	14811,42
443,948	14164,26
444,154	15034,65
444,361	14465,32
444,568	14209,32
444,774	13476,15
444,981	13541,68
445,187	13875,5
445,394	14348,58
445,6	13715,76
445,807	15116,57
446,013	14209,32
446,22	14559,52
446,426	14702,88
446,633	15169,82
446,839	15585,55
447,046	14663,97
447,252	15415,57
447,459	15255,83
447,665	14643,49
447,871	15386,9
448,078	15434
448,284	14790,94
448,491	14940,44
448,697	15864,08
448,903	15636,75
449,11	15892,75
449,316	15513,88
449,522	15878,41
449,728	16322,82
449,935	16283,91
450,141	16236,81
450,347	16679,17
450,553	15630,61
450,76	15776,02
450,966	16249,1
451,172	15933,71
451,378	15786,26
451,584	15438,1
451,791	15427,86
451,997	15143,19
452,203	15051,03
452,409	15290,65
452,615	15311,13
452,821	14772,51
453,027	14625,06
453,233	15624,47
453,44	15020,31
453,646	15585,55
453,852	15841,55
454,058	15724,82
454,264	15520,02
454,47	16038,16
454,676	15874,32
454,882	16906,49
455,088	15601,94
455,294	16042,25
455,5	16349,45
455,705	16763,14
455,911	16544
456,117	16568,58
456,323	16468,23
456,529	16224,52
456,735	16863,49
456,941	16781,57
457,147	16883,97
457,352	16589,06
457,558	16431,37
457,764	16634,11
457,97	16718,08
458,176	16838,91
458,381	16826,62
458,587	16632,07
458,793	16656,64
458,999	16322,82
459,204	17821,94
459,41	18354,41
459,616	17066,24
459,821	17428,73
460,027	17864,94
460,233	17955,05
460,438	17457,4
460,644	18319,59
460,85	18002,16
461,055	18088,17
461,261	18223,34
461,466	17606,9
461,672	17445,11
461,878	19020
462,083	18006,25
462,289	17889,52
462,494	18112,75
462,7	17764,59
462,905	17017,08
463,111	18120,94
463,316	18012,4
463,522	18405,61
463,727	18348,26
463,932	19042,53
464,138	19005,66
464,343	19390,68
464,549	18757,86
464,754	20132,04
464,959	20021,45
465,165	20414,66
465,37	19474,65
465,575	19091,68
465,781	19996,88
465,986	20232,4
466,191	19796,18
466,397	19847,38
466,602	19226,84
466,807	20037,84
467,012	20064,46
467,218	20646,08
467,423	20590,79
467,628	21330,11
467,833	22243,5
468,038	21416,12
468,244	21504,18
468,449	22243,5
468,654	21852,34
468,859	21698,74
469,064	21610,68
469,269	21438,65
469,474	21686,45
469,679	22306,99
469,885	21387,45
470,09	22296,75
470,295	22632,61
470,5	22286,51
470,705	22798,5
470,91	23156,89
471,115	23292,06
471,32	24492,17
471,525	24111,25
471,73	24375,44
471,935	24490,12
472,139	24262,8
472,344	24080,53
472,549	24739,97
472,754	24885,38
472,959	25073,79
473,164	24453,26
473,369	24551,56
473,574	26073,2
473,778	26286,19
473,983	26497,13
474,188	26751,08
474,393	26116,21
474,598	26630,25
474,802	26570,86
475,007	26789,99
475,212	27013,22
475,417	26482,8
475,621	27064,42
475,826	27113,57
476,031	27166,82
476,235	27441,25
476,44	28385,36
476,645	28196,95
476,849	29208,64
477,054	29159,49
477,259	29474,88
477,463	29554,75
477,668	29155,4
477,872	30312,5
478,077	29835,32
478,282	30175,28
478,486	29872,18
478,691	30380,08
478,895	30775,34
479,1	30687,28
479,304	30892,07
479,509	30863,4
479,713	31842,33
479,918	30996,52
480,122	31121,45
480,326	32067,61
480,531	32288,79
480,735	32860,17
480,94	32460,82
481,144	33660,93
481,348	32694,29
481,553	32860,17
481,757	32503,82
481,961	33304,58
482,166	33325,06
482,37	33163,27
482,574	33019,91
482,778	33478,66
482,983	33918,97
483,187	33079,3
483,391	33540,1
483,595	34187,25
483,8	33218,57
484,004	33382,4
484,208	33503,23
484,412	33173,51
484,616	32239,64
484,821	31684,64
485,025	30206
485,229	30105,65
485,433	29579,32
485,637	29945,91
485,841	29515,84
486,045	29761,59
486,249	30292,02
486,453	30842,92
486,657	31805,47
486,861	32925,71
487,065	32049,17
487,269	32839,69
487,473	33191,94
487,677	33904,63
487,881	33955,83
488,085	33974,27
488,289	34420,72
488,493	34842,6
488,697	35031,02
488,901	36229,08
489,105	36036,57
489,309	36222,94
489,512	36571,09
489,716	36696,02
489,92	36466,64
490,124	36698,06
490,328	36876,24
490,531	36390,87
490,735	35723,23
490,939	35733,47
491,143	35164,14
491,346	34873,32
491,55	35723,23
491,754	36102,11
491,958	35846,11
492,161	35938,27
492,365	36489,17
492,569	36583,38
492,772	36489,17
492,976	36827,09
493,18	36814,8
493,383	37341,13
493,587	37568,45
493,79	37773,25
493,994	37625,79
494,197	37920,7
494,401	38428,6
494,605	37824,45
494,808	38068,16
495,012	37865,41
495,215	37638,08
495,419	38256,57
495,622	37543,88
495,825	38252,47
496,029	38492,08
496,232	38731,7
496,436	38047,68
496,639	38672,31
496,843	37871,55
497,046	38430,65
497,249	37810,11
497,453	37517,25
497,656	36913,1
497,859	36790,22
498,063	37031,88
498,266	37855,17
498,469	37144,52
498,673	37507,01
498,876	37750,72
499,079	37699,52
499,282	36433,88
499,485	37021,64
499,689	36847,57
499,892	36640,72
500,095	36204,5
500,298	36564,95
500,501	35659,74
500,705	36466,64
500,908	35831,77
501,111	36073,43
501,314	35864,54
501,517	36059,1
501,72	36544,47
501,923	36577,23
502,126	36837,33
502,329	37797,82
502,532	37099,47
502,735	37308,36
502,938	37005,26
503,141	36820,94
503,344	36693,97
503,547	36601,81
503,75	37023,69
503,953	37044,17
504,156	37259,21
504,359	37494,72
504,562	37523,4
504,765	38352,82
504,968	38571,96
505,17	38729,65
505,373	38432,69
505,576	38715,31
505,779	38211,51
505,982	38393,78
506,185	38059,96
506,387	38291,38
506,59	37666,75
506,793	38072,25
506,996	36964,3
507,198	37584,83
507,401	37105,61
507,604	37543,88
507,807	38283,19
508,009	38166,46
508,212	38080,44
508,415	38457,27
508,617	38748,08
508,82	38535,09
509,022	37763,01
509,225	38553,52
509,428	38363,06
509,63	38354,87
509,833	38236,09
510,035	38711,22
510,238	38064,06
510,44	38879,15
510,643	38762,42
510,845	38944,69
511,048	38676,4
511,25	38799,28
511,453	38582,2
511,655	39534,5
511,858	38432,69
512,06	38223,8
512,262	38479,8
512,465	38029,24
512,667	37799,87
512,87	37912,51
513,072	37421
513,274	38027,2
513,477	38002,62
513,679	37881,79
513,881	37930,94
514,084	38148,03
514,286	37783,49
514,488	38334,39
514,69	39149,48
514,893	38719,41
515,095	38377,4
515,297	37883,84
515,499	37128,14
515,701	36556,75
515,904	35815,39
516,106	34949,1
516,308	34742,25
516,51	34762,73
516,712	34672,62
516,914	34643,95
517,116	35588,06
517,318	35252,2
517,52	35004,39
517,722	35258,34
517,925	35590,11
518,127	36448,21
518,329	36675,54
518,531	36880,33
518,733	37605,31
518,935	38309,82
519,136	38227,9
519,338	38821,81
519,54	38940,59
519,742	39315,37
519,944	39616,42
520,146	39628,71
520,348	39667,62
520,55	39968,67
520,752	40112,03
520,954	40757,14
521,155	39976,86
521,357	40382,36
521,559	40513,43
521,761	40370,07
521,963	39704,48
522,164	39661,47
522,366	39477,16
522,568	40171,42
522,77	40122,27
522,971	41222,03
523,173	41103,24
523,375	41269,13
523,576	41355,14
523,778	41650,05
523,98	42106,75
524,181	41674,63
524,383	41439,11
524,584	41926,53
524,786	41435,02
524,988	41123,72
525,189	40970,13
525,391	40519,57
525,592	39946,14
525,794	39495,59
525,995	38330,3
526,197	37681,09
526,398	37836,73
526,6	38408,12
526,801	38614,96
527,003	38662,07
527,204	38981,55
527,406	39638,95
527,607	40249,24
527,808	40689,56
528,01	39882,66
528,211	41471,88
528,412	41654,15
528,614	41877,38
528,815	41457,54
529,016	41711,49
529,218	40765,33
529,419	40953,74
529,62	41166,73
529,822	40886,16
530,023	41271,18
530,224	41615,24
530,425	41746,31
530,626	41365,38
530,828	40939,41
531,029	41658,24
531,23	40198,04
531,431	40054,68
531,632	39591,84
531,833	39280,55
532,035	38483,89
532,236	38985,65
532,437	38838,19
532,638	38385,59
532,839	38537,14
533,04	38617,01
533,241	38266,81
533,442	39350,18
533,643	38662,07
533,844	39067,56
534,045	39446,44
534,246	38502,32
534,447	39206,83
534,648	39321,51
534,849	39215,02
535,05	39641
535,251	39141,29
535,451	39284,65
535,652	39196,59
535,853	38838,19
536,054	38266,81
536,255	38438,84
536,456	37498,82
536,657	38504,37
536,857	37238,73
537,058	37691,33
537,259	38350,77
537,46	38465,46
537,66	37978,04
537,861	38356,92
538,062	37713,86
538,263	38424,5
538,463	37429,19
538,664	37357,51
538,865	36808,65
539,065	37271,5
539,266	36036,57
539,466	36610
539,667	35399,65
539,868	36204,5
540,068	35721,18
540,269	35723,23
540,469	35434,47
540,67	36059,1
540,87	35829,73
541,071	36337,62
541,271	36319,19
541,472	36224,98
541,672	35895,26
541,873	35784,67
542,073	35209,19
542,274	35923,93
542,474	35780,57
542,675	35952,6
542,875	36489,17
543,075	36315,09
543,276	35809,25
543,476	36440,02
543,676	35778,53
543,877	36532,18
544,077	36272,09
544,277	35524,58
544,478	35690,46
544,678	36378,58
544,878	36175,83
545,078	35948,51
545,279	35997,66
545,479	35692,51
545,679	35960,8
545,879	35608,54
546,079	35629,02
546,28	35782,62
546,48	35100,65
546,68	35450,85
546,88	35258,34
547,08	35299,3
547,28	35008,49
547,48	35112,94
547,68	34940,91
547,88	35002,35
548,081	35235,81
548,281	35512,29
548,481	34744,3
548,681	35207,14
548,881	35215,33
549,081	35338,21
549,28	34910,19
549,48	35258,34
549,68	35299,3
549,88	35612,64
550,08	34957,29
550,28	35141,61
550,48	34766,83
550,68	35012,59
550,88	34902
551,08	35391,46
551,279	35383,27
551,479	35266,53
551,679	35196,9
551,879	35016,68
552,079	34856,94
552,278	34131,96
552,478	34553,84
552,678	34615,28
552,878	34394,1
553,077	34912,24
553,277	34578,42
553,477	35420,13
553,676	34861,04
553,876	34906,09
554,076	35106,79
554,275	35303,4
554,475	34572,27
554,674	35020,78
554,874	35078,12
555,074	34566,13
555,273	34609,14
555,473	34633,71
555,672	34410,48
555,872	34582,51
556,071	34476,02
556,271	34093,05
556,47	33765,37
556,67	33642,49
556,869	33710,08
557,068	33818,62
557,268	33237
557,467	33669,12
557,667	33062,92
557,866	32800,78
558,065	32802,83
558,265	32368,66
558,464	32251,92
558,663	32770,06
558,863	31961,11
559,062	33019,91
559,261	32186,39
559,461	32712,72
559,66	32393,23
559,859	33167,37
560,058	32999,43
560,258	33239,04
560,457	32892,94
560,656	33775,61
560,855	32682
561,054	33138,69
561,253	32790,54
561,453	32870,41
561,652	33140,74
561,851	33286,15
562,05	32493,58
562,249	32946,19
562,448	33228,8
562,647	33437,7
562,846	33148,93
563,045	33546,24
563,244	32901,13
563,443	33417,22
563,642	32913,42
563,841	32849,93
564,04	32630,8
564,239	33212,42
564,438	32145,43
564,637	32489,49
564,836	32501,78
565,035	32040,98
565,234	32131,09
565,432	32192,53
565,631	31938,58
565,83	31909,91
566,029	32024,6
566,228	32153,62
566,427	31819,8
566,625	32059,41
566,824	31858,71
567,023	32669,71
567,222	31993,88
567,42	32589,84
567,619	32333,84
567,818	32174,1
568,016	31723,55
568,215	32325,65
568,414	31535,13
568,612	32210,96
568,811	31778,84
569,01	32063,51
569,208	31057,96
569,407	31485,98
569,605	30887,98
569,804	31303,71
570,002	30584,88
570,201	31049,77
570,4	30507,05
570,598	30517,29
570,797	30564,4
570,995	30906,41
571,193	30828,59
571,392	31647,77
571,59	31553,57
571,789	31721,5
571,987	31373,35
572,186	31756,32
572,384	31416,35
572,582	31621,15
572,781	31731,74
572,979	31598,62
573,177	31852,57
573,376	31772,7
573,574	31381,54
573,772	31647,77
573,971	31483,94
574,169	31129,64
574,367	31111,21
574,565	31180,84
574,763	31008,81
574,962	30597,17
575,16	30459,95
575,358	30756,91
575,556	30418,99
575,754	31375,39
575,952	30099,51
576,151	30695,47
576,349	30453,81
576,547	30709,8
576,745	30771,24
576,943	30507,05
577,141	30165,04
577,339	29919,29
577,537	29696,06
577,735	29843,51
577,933	29622,33
578,131	29665,34
578,329	29646,91
578,527	29673,53
578,725	30271,54
578,923	30066,74
579,121	30048,31
579,319	30103,6
579,516	30095,41
579,714	30195,76
579,912	30076,98
580,11	30228,53
580,308	30212,15
580,506	30615,6
580,704	30562,35
580,901	30380,08
581,099	30728,24
581,297	30541,87
581,495	30578,73
581,692	31029,29
581,89	30765,1
582,088	30892,07
582,285	30468,14
582,483	31137,83
582,681	30793,77
582,878	30631,98
583,076	30851,11
583,274	31043,62
583,471	30380,08
583,669	30441,52
583,866	30617,64
584,064	30765,1
584,262	30586,93
584,459	30597,17
584,657	30054,45
584,854	30437,42
585,052	29753,4
585,249	29528,13
585,447	29644,86
585,644	29571,13
585,841	30128,18
586,039	30193,72
586,236	29634,62
586,434	29632,57
586,631	30050,36
586,828	29962,29
587,026	30029,88
587,223	30165,04
587,42	29392,96
587,618	29395,01
587,815	28696,65
588,012	28481,61
588,21	27844,7
588,407	27670,62
588,604	26732,65
588,801	26912,87
588,999	26439,79
589,196	27111,52
589,393	26986,6
589,59	27924,57
589,787	27347,04
589,984	28100,69
590,182	27703,39
590,379	28285,01
590,576	28108,88
590,773	28309,58
590,97	28076,12
591,167	28532,81
591,364	27922,52
591,561	28870,73
591,758	28651,59
591,955	28831,82
592,152	28606,54
592,349	28586,06
592,546	28262,48
592,743	28338,26
592,94	28000,34
593,137	28459,09
593,334	28131,41
593,531	28018,77
593,727	28080,21
593,924	28295,25
594,121	27996,24
594,318	28233,81
594,515	27748,44
594,712	28178,51
594,908	27693,15
595,105	28059,73
595,302	27557,98
595,499	28082,26
595,696	27760,73
595,892	27531,36
596,089	27736,15
596,286	28086,36
596,482	27904,09
596,679	27891,8
596,876	27865,17
597,072	27701,34
597,269	27687
597,466	27435,1
597,662	26980,45
597,859	27101,28
598,055	26957,92
598,252	26994,79
598,448	26906,73
598,645	27320,42
598,841	27142,24
599,038	27209,82
599,234	27639,9
599,431	26777,7
599,627	26714,22
599,824	26734,7
600,02	26708,07
600,217	27127,91
600,413	27099,23
600,609	26577
600,806	26288,24
601,002	26429,55
601,198	26179,7
601,395	26148,98
601,591	26349,68
601,787	26177,65
601,984	26380,4
602,18	26882,15
602,376	26318,96
602,572	26486,89
602,769	26269,81
602,965	26253,42
603,161	26585,19
603,357	26312,81
603,553	26222,7
603,75	26759,27
603,946	26865,77
604,142	26798,18
604,338	26222,7
604,534	26914,92
604,73	26665,07
604,926	26773,61
605,122	26744,94
605,318	26439,79
605,514	26351,73
605,71	26083,44
605,906	26376,3
606,102	26691,69
606,298	26685,54
606,494	26640,49
606,69	26697,83
606,886	26312,81
607,082	25757,81
607,278	26839,14
607,474	26157,17
607,67	26220,66
607,866	26042,48
608,062	26513,52
608,257	26275,95
608,453	26394,73
608,649	26720,36
608,845	26161,26
609,041	26540,14
609,236	26718,31
609,432	26327,15
609,628	26153,07
609,824	26159,22
610,019	26269,81
610,215	26038,39
610,411	26812,52
610,606	26194,03
610,802	27005,03
610,998	26480,75
611,193	26599,53
611,389	26300,53
611,584	26212,46
611,78	25856,12
611,976	26282,09
612,171	26871,91
612,367	26445,93
612,562	26669,16
612,758	26134,64
612,953	26155,12
613,149	26450,03
613,344	26482,8
613,539	26601,58
613,735	26206,32
613,93	26552,43
614,126	26447,98
614,321	26691,69
614,517	26579,05
614,712	27000,93
614,907	26714,22
615,103	26943,59
615,298	26839,14
615,493	26824,81
615,688	25782,39
615,884	26417,26
616,079	25811,06
616,274	26740,84
616,47	26613,87
616,665	26683,5
616,86	26466,41
617,055	26896,49
617,25	26919,01
617,445	27349,09
617,641	26703,98
617,836	27426,91
618,031	26841,19
618,226	27762,78
618,421	27080,8
618,616	27523,16
618,811	27058,28
619,006	27703,39
619,201	26974,31
619,396	27183,2
619,591	27070,56
619,786	28125,27
619,981	27050,08
620,176	27963,48
620,371	27332,7
620,566	27297,89
620,761	26759,27
620,956	27279,46
621,151	26204,27
621,346	26765,42
621,541	26507,37
621,735	27148,39
621,93	26476,65
622,125	26644,59
622,32	25751,67
622,515	26069,11
622,709	25440,38
622,904	25997,43
623,099	25778,29
623,294	25925,75
623,488	25630,84
623,683	25575,55
623,878	25221,25
624,072	25309,31
624,267	25391,23
624,462	25010,31
624,656	24772,74
624,851	25174,14
625,046	24629,38
625,24	24676,49
625,435	24383,63
625,629	24836,23
625,824	25075,84
626,018	24805,51
626,213	24406,16
626,407	24979,59
626,602	24316,04
626,796	24637,58
626,991	24418,44
627,185	23971,99
627,38	23498,91
627,574	23804,05
627,768	23683,22
627,963	23654,55
628,157	23558,3
628,352	24303,76
628,546	23664,79
628,74	23836,82
628,935	23476,38
629,129	23441,56
629,323	23423,13
629,517	23226,53
629,712	23095,46
629,906	22958,24
630,1	22657,19
630,294	22995,11
630,489	23077,02
630,683	23373,98
630,877	23046,3
631,071	23029,92
631,265	22675,62
631,459	23163,04
631,653	22735,01
631,848	22929,57
632,042	22771,88
632,236	23212,19
632,43	22993,06
632,624	23584,92
632,818	23048,35
633,012	22673,57
633,206	22882,47
633,4	22722,73
633,594	22364,33
633,788	22898,85
633,982	22792,36
634,176	22900,9
634,369	22792,36
634,563	22966,43
634,757	22898,85
634,951	22927,52
635,145	22941,86
635,339	22964,39
635,533	22444,2
635,726	22485,16
635,92	22089,9
636,114	22732,97
636,308	22450,35
636,501	23058,59
636,695	22608,04
636,889	22542,5
637,083	22333,61
637,276	22560,94
637,47	22231,21
637,664	22782,12
637,857	22489,26
638,051	22587,56
638,244	22538,41
638,438	22413,48
638,632	22411,43
638,825	22464,68
639,019	22059,18
639,212	21835,95
639,406	22034,61
639,599	21866,67
639,793	21682,36
639,986	22116,53
640,18	21651,64
640,373	22335,66
640,567	21457,08
640,76	21809,33
640,954	21493,94
641,147	21602,49
641,34	21221,56
641,534	21815,48
641,727	21721,27
641,92	21870,77
642,114	21618,87
642,307	21555,38
642,5	21317,82
642,694	20902,08
642,887	21223,61
643,08	21561,53
643,273	21139,65
643,467	21297,34
643,66	21295,29
643,853	21252,28
644,046	21246,14
644,239	21571,77
644,432	21174,46
644,626	21256,38
644,819	20947,14
645,012	21092,54
645,205	20961,47
645,398	20906,18
645,591	20852,93
645,784	20785,35
645,977	20854,98
646,17	20707,52
646,363	20555,97
646,556	20650,18
646,749	20328,65
646,942	20590,79
647,135	20248,78
647,328	20568,26
647,521	20228,3
647,714	20134,09
647,907	20328,65
648,099	20240,59
648,292	20041,93
648,485	19939,54
648,678	19314,91
648,871	19790,03
649,064	19525,85
649,256	20023,5
649,449	19464,41
649,642	19919,06
649,835	19841,23
650,027	20207,82
650,22	20166,86
650,413	20166,86
650,605	19986,64
650,798	20441,29
650,991	19830,99
651,183	19810,51
651,376	20019,41
651,568	19957,97
651,761	19773,65
651,954	20136,14
652,146	20041,93
652,339	20236,49
652,531	19706,07
652,724	19790,03
652,916	19323,1
653,109	19675,35
653,301	19396,82
653,494	19495,13
653,686	19622,1
653,879	19720,4
654,071	19636,44
654,263	19589,33
654,456	19398,87
654,648	19194,08
654,84	18686,18
655,033	18004,21
655,225	17979,63
655,417	17350,9
655,61	16718,08
655,802	16201,99
655,994	15821,07
656,186	16136,46
656,379	15874,32
656,571	16709,89
656,763	16838,91
656,955	17320,18
657,148	17854,7
657,34	18116,84
657,532	18094,32
657,724	18274,54
657,916	18542,82
658,108	18313,45
658,3	18542,82
658,492	18526,44
658,684	18497,77
658,876	18753,76
659,068	18376,94
659,26	18387,18
659,452	18475,24
659,644	18542,82
659,836	18454,76
660,028	18761,95
660,22	18577,64
660,412	18444,52
660,604	18411,75
660,796	18837,73
660,988	18385,13
661,18	18790,63
661,372	18575,59
661,563	18944,22
661,755	18538,73
661,947	18751,71
662,139	18520,29
662,331	18690,27
662,522	18086,12
662,714	18409,7
662,906	18262,25
663,097	18268,39
663,289	18268,39
663,481	18043,12
663,673	17918,19
663,864	18213,1
664,056	18104,56
664,247	18260,2
664,439	17797,36
664,631	18376,94
664,822	18452,71
665,014	18385,13
665,205	18436,33
665,397	18270,44
665,588	17807,6
665,78	18301,16
665,971	17934,57
666,163	18036,97
666,354	17885,42
666,546	18184,43
666,737	17697,01
666,929	17795,31
667,12	18088,17
667,311	17756,4
667,503	17524,98
667,694	17856,75
667,885	17711,35
668,077	17864,94
668,268	17905,9
668,459	17662,19
668,651	17611
668,842	17674,48
669,033	17789,17
669,224	17926,38
669,416	17426,68
669,607	17551,6
669,798	17238,26
669,989	17492,21
670,18	17166,59
670,371	17258,74
670,563	17363,19
670,754	17223,93
670,945	17277,18
671,136	16845,05
671,327	16840,96
671,518	16435,46
671,709	16922,88
671,9	16988,41
672,091	17123,58
672,282	17111,29
672,473	16857,34
672,664	17121,53
672,855	16695,55
673,046	17060,09
673,237	16929,02
673,428	17152,25
673,619	16918,78
673,809	16689,41
674	16681,22
674,191	16773,38
674,382	16679,17
674,573	16736,51
674,764	16566,53
674,954	16773,38
675,145	16533,76
675,336	16996,6
675,527	16699,65
675,717	16613,63
675,908	16296,2
676,099	16883,97
676,289	16388,36
676,48	16875,77
676,671	16144,65
676,861	16378,12
677,052	16197,9
677,243	16445,7
677,433	16103,69
677,624	16732,42
677,814	16150,79
678,005	16652,55
678,195	16050,44
678,386	16513,28
678,576	16095,5
678,767	16537,86
678,957	15911,18
679,148	16310,54
679,338	16285,96
679,529	16072,97
679,719	16089,35
679,909	16445,7
680,1	15802,64
680,29	16181,51
680,481	15898,89
680,671	15857,93
680,861	15896,85
681,052	15905,04
681,242	15692,05
681,432	16208,14
681,622	15618,32
681,813	16034,06
682,003	15855,89
682,193	15632,66
682,383	15661,33
682,573	15440,15
682,764	15341,85
682,954	15472,92
683,144	15470,87
683,334	15702,29
683,524	15139,1
683,714	15477,01
683,904	15235,35
684,094	15407,38
684,284	15384,85
684,474	15603,99
684,664	15132,95
684,854	15165,72
685,044	14987,55
685,234	15200,54
685,424	14999,84
685,614	15180,06
685,804	14403,88
685,994	14219,56
686,184	13543,73
686,374	12904,76
686,564	11587,92
686,753	11262,29
686,943	10215,78
687,133	10496,35
687,323	10670,43
687,513	11229,52
687,702	11217,24
687,892	11626,83
688,082	11305,3
688,272	11819,34
688,461	11833,68
688,651	11876,68
688,841	11354,45
689,03	11661,65
689,22	11667,79
689,41	11970,89
689,599	12026,18
689,789	12259,65
689,979	12071,24
690,168	12593,47
690,358	12325,19
690,547	12622,14
690,737	12704,06
690,926	13093,18
691,116	12955,96
691,305	13355,32
691,495	13082,94
691,684	12939,58
691,874	13179,19
692,063	13467,95
692,252	13154,62
692,442	13596,98
692,631	13263,16
692,82	13527,35
693,01	13619,5
693,199	13662,51
693,388	13332,79
693,578	13734,19
693,767	13392,18
693,956	13582,64
694,146	13635,89
694,335	13621,55
694,524	13805,87
694,713	13906,22
694,902	13463,86
695,092	13695,28
695,281	13371,7
695,47	13781,29
695,659	13586,74
695,848	13902,12
696,037	14199,08
696,226	14065,96
696,415	13613,36
696,604	14076,2
696,793	13601,07
696,982	13816,11
697,171	13558,07
697,36	14088,49
697,549	13383,99
697,738	13556,02
697,927	13607,22
698,116	13846,83
698,305	13125,94
698,494	13766,96
698,683	13580,59
698,872	13412,66
699,061	13478,19
699,25	13764,91
699,438	13166,9
699,627	13601,07
699,816	13220,15
700,005	13216,05
700,193	13289,78
700,382	13558,07
700,571	13230,39
700,76	13066,55
700,948	13039,93
701,137	12904,76
701,326	12933,43
701,514	12861,76
701,703	13076,79
701,892	12755,26
702,08	12863,8
702,269	13105,46
702,457	12908,86
702,646	13056,31
702,834	12851,52
703,023	12910,91
703,212	12826,94
703,4	12925,24
703,589	12880,19
703,777	13261,11
703,965	12564,8
704,154	12906,81
704,342	12878,14
704,531	13330,74
704,719	12880,19
704,907	13232,44
705,096	12974,39
705,284	12861,76
705,472	12575,04
705,661	12538,18
705,849	12638,53
706,037	12751,17
706,226	12501,31
706,414	12689,73
706,602	12329,28
706,79	12761,41
706,979	12650,81
707,167	12564,8
707,355	12400,96
707,543	12464,45
707,731	12331,33
707,919	12489,03
708,107	12286,28
708,296	12554,56
708,484	12235,08
708,672	12388,67
708,86	12374,34
709,048	12550,46
709,236	12548,42
709,424	12441,92
709,612	12190,02
709,8	12400,96
709,988	12114,25
710,176	12562,75
710,364	12357,96
710,551	12867,9
710,739	12251,46
710,927	12446,02
711,115	12151,11
711,303	12294,47
711,491	11866,44
711,679	12153,16
711,866	12061
712,054	12273,99
712,242	11749,71
712,43	12015,94
712,617	11981,13
712,805	12048,71
712,993	11839,82
713,181	11882,83
713,368	11821,39
713,556	11936,07
713,744	11510,1
713,931	11815,24
714,119	11686,22
714,306	11532,62
714,494	11518,29
714,682	11254,1
714,869	11510,1
715,057	11608,4
715,244	11446,61
715,432	11678,03
715,619	11307,35
715,807	11438,42
715,994	11272,53
716,182	10987,86
716,369	10604,89
716,556	10791,26
716,744	10482,02
716,931	10721,63
717,119	10279,27
717,306	10482,02
717,493	9959,78
717,681	10058,09
717,868	9795,95
718,055	9560,43
718,242	9476,46
718,43	9607,53
718,617	9257,33
718,804	9271,67
718,991	8808,83
719,179	9398,64
719,366	9027,96
719,553	9439,6
719,74	9025,91
719,927	9384,3
720,114	9187,7
720,301	9361,78
720,488	9324,91
720,676	9675,12
720,863	9423,22
721,05	9800,04
721,237	9843,05
721,424	10072,42
721,611	9908,58
721,798	9976,17
721,985	9720,17
722,172	9836,91
722,358	9879,91
722,545	9967,98
722,732	9703,79
722,919	9812,33
723,106	9558,38
723,293	9873,77
723,48	9359,73
723,667	9390,45
723,853	8958,33
724,04	9339,25
724,227	9197,94
724,414	9214,32
724,6	8941,94
724,787	9247,09
724,974	9181,56
725,161	9453,94
725,347	9122,16
725,534	9515,37
725,72	9304,43
725,907	9300,34
726,094	9228,66
726,28	9466,22
726,467	9214,32
726,653	9331,06
726,84	9103,73
727,027	9288,05
727,213	8794,49
727,4	8974,71
727,586	9036,15
727,773	9107,83
727,959	9156,98
728,145	9349,49
728,332	9009,53
728,518	8913,27
728,705	8671,61
728,891	8657,28
729,077	8804,73
729,264	8790,39
729,45	8984,95
729,636	9212,28
729,823	8694,14
730,009	8870,26
730,195	8829,31
730,382	8931,7
730,568	8726,91
730,754	8878,46
730,94	8751,48
731,126	9048,44
731,313	8640,89
731,499	8919,42
731,685	8909,18
731,871	8829,31
732,057	8753,53
732,243	8968,57
732,429	8984,95
732,615	9113,97
732,801	9111,92
732,987	9052,53
733,173	8919,42
733,359	9183,6
733,545	9202,04
733,731	9097,59
733,917	9220,47
734,103	9392,5
734,289	9025,91
734,475	9066,87
734,661	9197,94
734,847	8935,8
735,033	8939,9
735,219	8911,22
735,404	8931,7
735,59	9126,26
735,776	8790,39
735,962	8819,07
736,148	8796,54
736,333	8757,63
736,519	8393,09
736,705	8681,85
736,89	8589,69
737,076	8778,11
737,262	8526,21
737,447	8786,3
737,633	8520,06
737,819	8821,11
738,004	8442,24
738,19	8661,37
738,375	8483,2
738,561	8628,6
738,747	8038,79
738,932	8436,1
739,118	8243,59
739,303	8526,21
739,489	8540,54
739,674	8450,43
739,859	8356,22
740,045	8470,91
740,23	8317,31
740,416	8495,49
740,601	8493,44
740,786	8411,52
740,972	8364,42
741,157	8391,04
741,342	8133
741,528	8190,34
741,713	7887,24
741,898	8198,53
742,084	8135,04
742,269	8286,59
742,454	8022,41
742,639	8206,72
742,824	7999,88
743,01	8165,76
743,195	8245,63
743,38	8286,59
743,565	8014,21
743,75	8266,11
743,935	8014,21
744,12	8018,31
744,305	7793,03
744,49	7975,3
744,675	7778,7
744,86	7795,08
745,045	7825,8
745,23	8024,45
745,415	7747,98
745,6	7887,24
745,785	7557,52
745,97	7995,78
746,155	7621
746,34	7926,15
746,525	7516,56
746,71	7858,57
746,895	7670,15
747,079	7717,26
747,264	7668,11
747,449	7666,06
747,634	7510,41
747,819	7606,67
748,003	7436,69
748,188	7428,49
748,373	7438,73
748,557	7547,28
748,742	7248,27
748,927	7360,91
749,111	7481,74
749,296	7528,85
749,481	7217,55
749,665	7301,52
749,85	7160,21
750,034	7387,54
750,219	7119,25
750,404	7170,45
750,588	6939,03
750,773	7352,72
750,957	7149,97
751,141	7391,63
751,326	7047,57
751,51	7125,4
751,695	6994,33
751,879	7084,44
752,064	7051,67
752,248	7229,84
752,432	6957,46
752,617	6957,46
752,801	6814,1
752,985	6943,13
753,17	6943,13
753,354	7328,14
753,538	7137,68
753,722	7326,1
753,907	6986,13
754,091	7092,63
754,275	6678,94
754,459	6943,13
754,643	6803,86
754,828	7018,9
755,012	6740,38
755,196	6742,43
755,38	6363,55
755,564	6537,63
755,748	6500,76
755,932	6908,31
756,116	6650,27
756,3	6689,18
756,484	6566,3
756,668	6803,86
756,852	6511
757,036	6478,24
757,22	6273,44
757,404	6715,8
757,588	6465,95
757,772	6355,36
757,956	6379,93
758,14	6418,85
758,323	6345,12
758,507	6281,63
758,691	5829,03
758,875	5411,25
759,059	4753,85
759,242	4143,55
759,426	2859,48
759,61	2087,39
759,794	1186,29
759,977	760,31
760,161	473,59
760,345	315,9
760,528	207,36
760,712	184,83
760,895	274,94
761,079	303,61
761,263	502,26
761,446	809,46
761,63	993,78
761,813	1200,62
761,997	1300,97
762,18	1260,01
762,364	973,3
762,547	891,38
762,731	825,84
762,914	928,24
763,098	758,26
763,281	965,11
763,464	934,39
763,648	1067,5
763,831	1085,94
764,015	1309,16
764,198	1307,12
764,381	1694,18
764,564	1911,27
764,748	2081,25
764,931	2333,15
765,114	2578,9
765,297	2718,17
765,481	3295,69
765,664	3201,49
765,847	3838,41
766,03	3844,55
766,213	4245,95
766,397	4362,69
766,58	4917,68
766,763	4796,85
766,946	5063,09
767,129	5042,61
767,312	5716,39
767,495	5743,02
767,678	5771,69
767,861	5876,13
768,044	6125,99
768,227	6216,1
768,41	6410,65
768,593	6478,24
768,776	6541,72
768,959	6314,4
769,142	6582,68
769,324	6207,91
769,507	6508,96
769,69	6646,17
769,873	6756,76
770,056	6965,65
770,239	7066
770,421	6971,8
770,604	7076,24
770,787	6920,6
770,97	7080,34
771,152	6906,26
771,335	7276,94
771,518	7039,38
771,7	7297,42
771,883	7033,24
772,066	7336,34
772,248	6891,93
772,431	7475,6
772,613	7328,14
772,796	7330,19
772,978	7272,85
773,161	7240,08
773,343	7287,18
773,526	7289,23
773,708	7301,52
773,891	7231,89
774,073	7063,96
774,256	7213,46
774,438	7256,47
774,621	7166,35
774,803	7010,71
774,985	7260,56
775,168	7117,2
775,35	7111,06
775,532	7051,67
775,715	7199,12
775,897	7154,07
776,079	7272,85
776,261	7092,63
776,444	7391,63
776,626	7109,01
776,808	7223,7
776,99	7240,08
777,173	7430,54
777,355	7174,55
777,537	7252,37
777,719	6996,37
777,901	6791,58
778,083	6855,06
778,265	6879,64
778,447	6936,98
778,629	7039,38
778,811	6896,02
778,993	6941,08
779,175	6920,6
779,357	7023
779,539	6805,91
779,721	6971,8
779,903	7049,62
780,085	6810,01
780,267	6478,24
780,449	7018,9
780,631	6551,96
780,812	6705,56
780,994	6502,81
781,176	6830,49
781,358	6351,26
781,54	6787,48
781,721	6601,12
781,903	6670,75
782,085	6474,14
782,267	6490,52
782,448	6261,15
782,63	6347,17
782,812	6324,64
782,993	6232,48
783,175	6021,54
783,357	6355,36
783,538	6123,94
783,72	6232,48
783,901	6007,2
784,083	6113,7
784,264	5884,33
784,446	6197,67
784,627	6009,25
784,809	6093,22
784,99	5884,33
785,172	6142,37
785,353	5810,6
785,535	5855,65
785,716	5783,98
785,897	5921,19
786,079	5681,58
786,26	5994,92
786,441	5765,54
786,623	5853,61
786,804	5495,21
786,985	5738,92
787,167	5499,31
787,348	5534,12
787,529	5480,88
787,71	5425,58
787,891	5550,51
788,073	5663,15
788,254	5454,25
788,435	5458,35
788,616	5634,47
788,797	5558,7
788,978	5345,71
789,159	5269,94
789,34	5069,23
789,522	5331,37
789,703	5235,12
789,884	5208,5
790,065	4876,73
790,246	5159,35
790,427	4927,92
790,607	5056,95
790,788	4837,81
790,969	4960,69
791,15	4823,48
791,331	5042,61
791,512	5087,67
791,693	4929,97
791,874	4565,43
792,054	4772,28
792,235	4639,16
792,416	4846,01
792,597	4520,38
792,778	4536,76
792,958	4450,75
793,139	4649,4
793,32	4270,53
793,5	4784,57
793,681	4315,58
793,862	4362,69
794,042	4305,34
794,223	4401,6
794,404	4213,18
794,584	4305,34
794,765	3955,14
794,945	4405,69
795,126	4159,94
795,306	4401,6
795,487	4061,63
795,667	4411,84
795,848	4147,65
796,028	4233,66
796,209	4250,05
796,389	4364,73
796,57	4166,08
796,75	4426,17
796,93	4395,45
797,111	4229,57
797,291	4086,21
797,471	4370,88
797,652	4135,36
797,832	4307,39
798,012	4104,64
798,192	4237,76
798,373	4004,29
798,553	4370,88
798,733	3924,42
798,913	4235,71
799,093	3963,33
799,274	4096,45
799,454	3793,35
799,634	3987,91
799,814	3639,75
799,994	3985,86
800,174	3930,56
800,354	4102,59
800,534	3862,98
800,714	3838,41
800,894	3611,08
801,074	3848,65
801,254	3535,31
801,434	3912,13
801,614	3660,23
801,794	3666,38
801,974	3414,48
802,154	3641,8
802,334	3443,15
802,514	3643,85
802,693	3477,96
802,873	3566,03
803,053	3492,3
803,233	3512,78
803,413	3379,66
803,592	3705,29
803,772	3344,84
803,952	3645,9
804,131	3287,5
804,311	3553,74
804,491	3262,93
804,67	3480,01
804,85	3219,92
805,03	3414,48
805,209	3271,12
805,389	3361,23
805,568	3316,17
805,748	3477,96
805,928	3246,54
806,107	3449,29
806,287	3168,72
806,466	3418,57
806,646	3346,89
806,825	3338,7
807,004	3066,32
807,184	3406,28
807,363	3088,85
807,543	3314,13
807,722	3103,18
807,901	3162,58
808,081	3097,04
808,26	3264,97
808,439	3051,99
808,619	3256,78
808,798	2968,02
808,977	2996,69
809,156	2972,11
809,336	2939,35
809,515	2771,41
809,694	2890,2
809,873	2820,56
810,052	3031,51
810,231	2841,04
810,411	2763,22
810,59	2685,4
810,769	2906,58
810,948	2865,62
811,127	2925,01
811,306	2861,52
811,485	2824,66
811,664	2693,59
811,843	2814,42
812,022	2699,73
812,201	2937,3
812,38	2628,06
812,559	2707,93
812,737	2587,1
812,916	2560,47
813,095	2453,98
813,274	2666,97
813,453	2482,65
813,632	2537,95
813,811	2298,33
813,989	2355,68
814,168	2218,46
814,347	2259,42
814,526	2077,15
814,704	2355,68
814,883	2062,82
815,062	2150,88
815,24	2003,43
815,419	2066,91
815,598	1898,98
815,776	1968,61
815,955	1772
816,133	2028
816,312	1841,64
816,49	1991,14
816,669	2013,67
816,847	1931,75
817,026	2040,29
817,204	1798,63
817,383	1759,72
817,561	1952,23
817,74	1825,25
817,918	1874,4
818,097	1800,68
818,275	1817,06
818,453	1677,8
818,632	2036,19
818,81	1855,97
818,988	1741,29
819,167	1608,17
819,345	1665,51
819,523	1559,02
819,701	1726,95
819,879	1645,03
820,058	1819,11
820,236	1702,37
820,414	1948,13
820,592	1898,98
820,77	1806,82
820,948	1812,96
821,127	1870,31
821,305	1706,47
821,483	1794,53
821,661	1729
821,839	1845,73
822,017	1591,78
822,195	1651,17
822,373	1399,27
822,551	1341,93
822,729	1120,75
822,907	1309,16
823,085	1217,01
823,262	1382,89
823,44	1214,96
823,618	1399,27
823,796	1487,34
823,974	1577,45
824,152	1544,68
824,329	1685,99
824,507	1513,96
824,685	1751,53
824,863	1507,82
825,04	1649,13
825,218	1683,94
825,396	1786,34
825,574	1616,36
825,751	1647,08
825,929	1589,74
826,107	1692,13
826,284	1612,26
826,462	1743,33
826,639	1481,19
826,817	1716,71
826,994	1513,96
827,172	1493,48
827,349	1341,93
827,527	1405,42
827,704	1323,5
827,882	1425,9
828,059	1278,44
828,237	1493,48
828,414	1321,45
828,591	1473
828,769	1219,05
828,946	1266,16
829,124	1184,24
829,301	1356,27
829,478	1307,12
829,655	1354,22
829,833	1145,33
830,01	1321,45
830,187	1184,24
830,364	1380,84
830,542	1235,44
830,719	1169,9
830,896	1184,24
831,073	1284,59
831,25	1067,5
831,427	1278,44
831,604	1137,13
831,782	1206,77
831,959	1104,37
832,136	1184,24
832,313	1141,23
832,49	1325,55
832,667	1120,75
832,844	1233,39
833,021	1030,64
833,198	1053,17
833,374	969,2
833,551	1038,83
833,728	965,11
833,905	1112,56
834,082	1106,42
834,259	1268,2
834,436	1087,98
834,612	1169,9
834,789	1067,5
834,966	1184,24
835,143	1077,74
835,319	1014,26
835,496	1063,41
835,673	1053,17
835,85	932,34
836,026	1128,94
836,203	891,38
836,38	1128,94
836,556	995,82
836,733	1038,83
836,909	981,49
837,086	997,87
837,262	1079,79
837,439	997,87
837,616	989,68
837,792	1044,98
837,968	834,04
838,145	1126,89
838,321	1030,64
838,498	1038,83
838,674	889,33
838,851	1042,93
839,027	817,65
839,203	954,87
839,38	887,28
839,556	903,67
839,732	1051,12
839,909	954,87
840,085	911,86
840,261	928,24
840,437	866,8
840,614	924,15
840,79	831,99
840,966	793,08
841,142	858,61
841,318	911,86
841,494	784,88
841,671	1051,12
841,847	905,71
842,023	879,09
842,199	811,51
842,375	872,95
842,551	858,61
842,727	834,04
842,903	737,78
843,079	856,56
843,255	719,35
843,431	891,38
843,607	694,77
843,783	735,73
843,959	637,43
844,134	813,56
844,31	610,81
844,486	702,97
844,662	737,78
844,838	848,37
845,013	723,44
845,189	752,12
845,365	551,42
845,541	756,21
845,716	727,54
845,892	768,5
846,068	608,76
846,244	748,02
846,419	602,61
846,595	641,53
846,77	651,77
846,946	666,1
847,122	600,57
847,297	666,1
847,473	522,74
847,648	694,77
847,824	616,95
847,999	596,47
848,175	541,18
848,35	616,95
848,526	596,47
848,701	629,24
848,876	475,64
849,052	621,05
849,227	506,36
849,403	477,69
849,578	414,2
849,753	330,23
849,929	393,72
850,104	455,16
850,279	389,63
850,454	465,4
850,63	430,59
850,805	440,83
850,98	514,55
851,155	621,05
851,33	463,35
851,505	383,48
851,681	453,11
851,856	621,05
852,031	416,25
852,206	428,54
852,381	420,35
852,556	619
852,731	367,1
852,906	496,12
853,081	342,52
853,256	358,91
853,431	299,52
853,606	367,1
853,781	283,13
853,956	248,32
854,131	203,26
854,305	168,45
854,48	250,36
854,655	207,36
854,83	276,99
855,005	344,57
855,18	328,19
855,354	348,67
855,529	317,95
855,704	430,59
855,879	287,23
856,053	416,25
856,228	309,76
856,403	363
856,577	399,87
856,752	258,56
856,926	276,99
857,101	348,67
857,276	317,95
857,45	330,23
857,625	334,33
857,799	342,52
857,974	332,28
858,148	330,23
858,323	274,94
858,497	326,14
858,672	307,71
858,846	307,71
859,02	326,14
859,195	326,14
859,369	324,09
859,543	260,6
859,718	276,99
859,892	256,51
860,066	283,13
860,241	252,41
860,415	285,18
860,589	293,37
860,763	326,14
860,938	270,84
861,112	276,99
861,286	268,8
861,46	197,12
861,634	211,45
861,808	209,4
861,982	240,12
862,157	309,76
862,331	305,66
862,505	209,4
862,679	199,16
862,853	162,3
863,027	279,04
863,201	158,21
863,375	154,11
863,549	233,98
863,722	233,98
863,896	211,45
864,07	203,26
864,244	145,92
864,418	250,36
864,592	217,6
864,766	227,84
864,939	184,83
865,113	137,73
865,287	162,3
865,461	276,99
865,634	137,73
865,808	168,45
865,982	109,05
866,156	109,05
866,329	64
866,503	145,92
866,676	160,25
866,85	176,64
867,024	150,01
867,197	223,74
867,371	150,01
867,544	152,06
867,718	182,78
867,891	186,88
868,065	137,73
868,238	199,16
868,412	178,69
868,585	188,93
868,759	90,62
868,932	145,92
869,105	152,06
869,279	129,53
869,452	125,44
869,625	203,26
869,799	168,45
869,972	137,73
870,145	166,4
870,319	154,11
870,492	129,53
870,665	143,87
870,838	137,73
871,011	227,84
871,185	190,97
871,358	158,21
871,531	139,77
871,704	150,01
871,877	135,68
872,05	72,19
872,223	117,25
872,396	35,33
872,569	111,1
872,742	111,1
872,915	29,18
873,088	170,49
873,261	143,87
873,434	182,78
873,607	170,49
873,78	72,19
873,953	-1,54
874,126	129,53
874,299	66,05
874,471	80,38
874,644	39,42
874,817	150,01
874,99	135,68
875,163	68,09
875,335	178,69
875,508	68,09
875,681	113,15
875,853	133,63
876,026	86,53
876,199	88,57
876,371	102,91
876,544	86,53
876,717	70,14
876,889	78,33
877,062	61,95
877,234	117,25
877,407	41,47
877,579	80,38
877,752	86,53
877,924	121,34
878,097	104,96
878,269	102,91
878,442	127,49
878,614	4,61
878,786	135,68
878,959	86,53
879,131	70,14
879,303	102,91
879,476	102,91
879,648	107,01
879,82	43,52
879,993	84,48
880,165	61,95
880,337	88,57
880,509	107,01
880,681	55,81
880,854	53,76
881,026	53,76
881,198	70,14
881,37	14,85
881,542	64
881,714	90,62
881,886	61,95
882,058	96,77
882,23	20,99
882,402	47,62
882,574	-9,73
882,746	64
882,918	53,76
883,09	72,19
883,262	14,85
883,434	90,62
883,606	80,38
883,778	72,19
883,95	104,96
884,122	47,62
884,293	94,72
884,465	88,57
884,637	39,42
884,809	121,34
884,98	45,57
885,152	113,15
885,324	2,56
885,496	80,38
885,667	88,57
885,839	104,96
886,011	45,57
886,182	47,62
886,354	41,47
886,525	64
886,697	133,63
886,869	47,62
887,04	119,29
887,212	41,47
887,383	41,47
887,555	31,23
887,726	59,9
887,897	2,56
888,069	51,71
888,24	90,62
888,412	43,52
888,583	-9,73
888,754	-30,21
888,926	74,24
889,097	72,19
889,268	64
889,44	80,38
889,611	59,9
889,782	53,76
889,953	61,95
890,125	41,47
890,296	59,9
890,467	68,09
890,638	-1,54
890,809	53,76
890,98	27,14
891,151	41,47
891,323	-9,73
891,494	53,76
891,665	39,42
891,836	16,9
892,007	12,8
892,178	20,99
892,349	33,28
892,52	20,99
892,691	37,38
892,862	23,04
893,032	10,75
893,203	72,19
893,374	55,81
893,545	121,34
893,716	64
893,887	64
894,057	29,18
894,228	55,81
894,399	12,8
894,57	90,62
894,74	29,18
894,911	-52,74
895,082	64
895,253	76,29
895,423	-62,98
895,594	8,7
895,764	82,43
895,935	70,14
896,106	47,62
896,276	104,96
896,447	10,75
896,617	68,09
896,788	59,9
896,958	100,86
897,129	-17,92
897,299	96,77
897,47	92,67
897,64	-9,73
897,81	49,66
897,981	4,61
898,151	55,81
898,322	12,8
898,492	4,61
898,662	51,71
898,832	47,62
899,003	-17,92
899,173	-5,63
899,343	96,77
899,513	-17,92
