Data from sun_USB4F104151__6__16-40-13-768.txt Node

Date: Thu Mar 07 16:40:13 EST 2024
User: lauri
Spectrometer: USB4F10415
Trigger mode: 4
Integration Time (sec): 2,000000E-3
Scans to average: 1
Electric dark correction enabled: true
Nonlinearity correction enabled: false
Boxcar width: 0
XAxis mode: Wavelengths
Number of Pixels in Spectrum: 3648
>>>>>Begin Spectral Data<<<<<
178,204	10,24
178,424	10,24
178,644	10,24
178,864	20,48
179,084	-26,62
179,304	-51,2
179,524	-4,1
179,744	81,92
179,964	-22,53
180,184	4,1
180,404	4,1
180,624	-32,77
180,844	6,14
181,064	-16,38
181,283	61,44
181,503	-47,1
181,723	16,38
181,943	43,01
182,163	-49,15
182,383	22,53
182,602	-34,82
182,822	40,96
183,042	-18,43
183,262	-65,54
183,482	-4,1
183,701	6,14
183,921	-2,05
184,141	26,62
184,361	-67,58
184,58	-38,91
184,8	-0
185,02	51,2
185,239	22,53
185,459	12,29
185,679	-104,45
185,898	-81,92
186,118	-16,38
186,338	-2,05
186,557	-8,19
186,777	-24,58
186,997	-4,1
187,216	43,01
187,436	-36,86
187,655	4,1
187,875	-77,82
188,095	20,48
188,314	26,62
188,534	47,1
188,753	-40,96
188,973	-47,1
189,192	-4,1
189,412	-63,49
189,631	-12,29
189,851	-26,62
190,07	-18,43
190,29	18,43
190,509	-6,14
190,729	-38,91
190,948	-47,1
191,168	32,77
191,387	-38,91
191,607	-45,06
191,826	-8,19
192,045	4,1
192,265	-55,3
192,484	-57,34
192,704	-69,63
192,923	55,3
193,142	-55,3
193,362	-10,24
193,581	24,58
193,8	-28,67
194,02	4,1
194,239	67,58
194,458	49,15
194,678	-63,49
194,897	-26,62
195,116	10,24
195,335	20,48
195,555	-65,54
195,774	14,34
195,993	14,34
196,212	34,82
196,432	53,25
196,651	12,29
196,87	40,96
197,089	43,01
197,308	-10,24
197,528	30,72
197,747	2,05
197,966	14,34
198,185	-28,67
198,404	-10,24
198,623	-30,72
198,842	-45,06
199,062	-22,53
199,281	6,14
199,5	-36,86
199,719	-4,1
199,938	-6,14
200,157	-0
200,376	-71,68
200,595	34,82
200,814	-36,86
201,033	10,24
201,252	-26,62
201,471	16,38
201,69	-65,54
201,909	-22,53
202,128	86,01
202,347	12,29
202,566	14,34
202,785	-18,43
203,004	6,14
203,223	43,01
203,442	36,86
203,661	-45,06
203,879	-36,86
204,098	-6,14
204,317	-38,91
204,536	-0
204,755	-40,96
204,974	-36,86
205,193	-4,1
205,411	14,34
205,63	-55,3
205,849	18,43
206,068	-6,14
206,287	59,39
206,505	-0
206,724	47,1
206,943	-8,19
207,162	-38,91
207,381	2,05
207,599	77,82
207,818	28,67
208,037	6,14
208,255	-18,43
208,474	-4,1
208,693	24,58
208,911	38,91
209,13	-10,24
209,349	36,86
209,567	10,24
209,786	-2,05
210,005	-59,39
210,223	-0
210,442	28,67
210,661	-43,01
210,879	-73,73
211,098	24,58
211,316	4,1
211,535	-14,34
211,753	73,73
211,972	10,24
212,191	2,05
212,409	-55,3
212,628	-38,91
212,846	-30,72
213,065	-43,01
213,283	-6,14
213,502	-81,92
213,72	-34,82
213,938	-22,53
214,157	30,72
214,375	-45,06
214,594	2,05
214,812	16,38
215,031	-47,1
215,249	-47,1
215,467	-34,82
215,686	-16,38
215,904	-38,91
216,122	-65,54
216,341	-2,05
216,559	-14,34
216,778	-30,72
216,996	-14,34
217,214	22,53
217,432	-75,77
217,651	-30,72
217,869	-45,06
218,087	-71,68
218,306	-36,86
218,524	14,34
218,742	-28,67
218,96	20,48
219,179	-36,86
219,397	-49,15
219,615	55,3
219,833	-86,01
220,051	8,19
220,27	12,29
220,488	-45,06
220,706	-8,19
220,924	-16,38
221,142	4,1
221,36	-14,34
221,578	77,82
221,796	-83,97
222,015	43,01
222,233	6,14
222,451	-30,72
222,669	6,14
222,887	-30,72
223,105	-28,67
223,323	-69,63
223,541	-40,96
223,759	51,2
223,977	6,14
224,195	-10,24
224,413	-81,92
224,631	-45,06
224,849	10,24
225,067	18,43
225,285	-65,54
225,503	-20,48
225,721	-14,34
225,939	-22,53
226,157	-55,3
226,375	-10,24
226,592	20,48
226,81	-18,43
227,028	-61,44
227,246	22,53
227,464	-59,39
227,682	4,1
227,9	14,34
228,117	30,72
228,335	4,1
228,553	-12,29
228,771	-63,49
228,989	-34,82
229,206	6,14
229,424	36,86
229,642	79,87
229,86	-16,38
230,077	-8,19
230,295	-4,1
230,513	-36,86
230,731	-47,1
230,948	-57,34
231,166	43,01
231,384	-4,1
231,601	-38,91
231,819	20,48
232,037	-4,1
232,254	-45,06
232,472	12,29
232,689	20,48
232,907	4,1
233,125	18,43
233,342	-28,67
233,56	20,48
233,777	34,82
233,995	-0
234,213	2,05
234,43	-6,14
234,648	36,86
234,865	-14,34
235,083	4,1
235,3	-38,91
235,518	28,67
235,735	-20,48
235,953	-0
236,17	12,29
236,388	-4,1
236,605	-4,1
236,822	32,77
237,04	8,19
237,257	45,06
237,475	2,05
237,692	26,62
237,909	61,44
238,127	-14,34
238,344	2,05
238,562	-0
238,779	36,86
238,996	12,29
239,214	-73,73
239,431	43,01
239,648	14,34
239,865	-16,38
240,083	2,05
240,3	-61,44
240,517	10,24
240,735	6,14
240,952	-57,34
241,169	43,01
241,386	-0
241,603	-67,58
241,821	-30,72
242,038	28,67
242,255	-28,67
242,472	6,14
242,689	-40,96
242,907	2,05
243,124	-8,19
243,341	4,1
243,558	-0
243,775	10,24
243,992	-77,82
244,209	-36,86
244,426	-16,38
244,643	-81,92
244,86	-38,91
245,078	-61,44
245,295	-61,44
245,512	32,77
245,729	-0
245,946	-22,53
246,163	-71,68
246,38	-20,48
246,597	30,72
246,814	8,19
247,031	-26,62
247,248	34,82
247,464	-36,86
247,681	-32,77
247,898	2,05
248,115	-40,96
248,332	-22,53
248,549	-36,86
248,766	2,05
248,983	-10,24
249,2	-77,82
249,417	-22,53
249,633	-6,14
249,85	-10,24
250,067	-83,97
250,284	20,48
250,501	63,49
250,717	-2,05
250,934	-14,34
251,151	-47,1
251,368	-20,48
251,585	8,19
251,801	14,34
252,018	-2,05
252,235	-38,91
252,451	-55,3
252,668	-18,43
252,885	-61,44
253,102	-22,53
253,318	-10,24
253,535	8,19
253,752	34,82
253,968	-4,1
254,185	18,43
254,401	-43,01
254,618	-0
254,835	-73,73
255,051	-20,48
255,268	4,1
255,484	43,01
255,701	-36,86
255,917	-10,24
256,134	18,43
256,351	16,38
256,567	-81,92
256,784	-2,05
257	38,91
257,217	-20,48
257,433	-30,72
257,65	-57,34
257,866	-34,82
258,082	32,77
258,299	-69,63
258,515	-2,05
258,732	16,38
258,948	51,2
259,165	-2,05
259,381	-71,68
259,597	30,72
259,814	-45,06
260,03	-61,44
260,246	14,34
260,463	-47,1
260,679	30,72
260,895	-32,77
261,112	-38,91
261,328	-6,14
261,544	6,14
261,761	8,19
261,977	-49,15
262,193	18,43
262,409	-4,1
262,626	-79,87
262,842	24,58
263,058	-20,48
263,274	53,25
263,49	10,24
263,707	-12,29
263,923	6,14
264,139	20,48
264,355	49,15
264,571	-4,1
264,787	-36,86
265,004	12,29
265,22	-65,54
265,436	-28,67
265,652	-92,16
265,868	10,24
266,084	-4,1
266,3	-53,25
266,516	-45,06
266,732	-28,67
266,948	-30,72
267,164	20,48
267,38	-8,19
267,596	4,1
267,812	-47,1
268,028	14,34
268,244	-63,49
268,46	-47,1
268,676	14,34
268,892	67,58
269,108	28,67
269,324	-20,48
269,54	-10,24
269,756	16,38
269,972	-24,58
270,188	-34,82
270,403	2,05
270,619	-6,14
270,835	-32,77
271,051	-67,58
271,267	4,1
271,483	40,96
271,698	-14,34
271,914	28,67
272,13	-8,19
272,346	18,43
272,562	10,24
272,777	-55,3
272,993	-30,72
273,209	-36,86
273,425	-10,24
273,64	6,14
273,856	-88,06
274,072	-32,77
274,287	-30,72
274,503	-18,43
274,719	14,34
274,934	67,58
275,15	-34,82
275,366	16,38
275,581	49,15
275,797	-22,53
276,012	18,43
276,228	43,01
276,444	57,34
276,659	-16,38
276,875	-61,44
277,09	-28,67
277,306	-38,91
277,521	10,24
277,737	-34,82
277,952	38,91
278,168	-65,54
278,383	-24,58
278,599	8,19
278,814	-57,34
279,03	6,14
279,245	-28,67
279,461	8,19
279,676	-63,49
279,892	-28,67
280,107	-26,62
280,322	-38,91
280,538	10,24
280,753	55,3
280,969	-61,44
281,184	-49,15
281,399	-18,43
281,615	-30,72
281,83	-18,43
282,045	-102,4
282,26	30,72
282,476	34,82
282,691	-0
282,906	-69,63
283,122	10,24
283,337	-53,25
283,552	26,62
283,767	-14,34
283,983	-18,43
284,198	-36,86
284,413	-20,48
284,628	-38,91
284,843	20,48
285,058	26,62
285,274	-45,06
285,489	-4,1
285,704	20,48
285,919	-65,54
286,134	45,06
286,349	-40,96
286,564	-6,14
286,779	-36,86
286,995	-24,58
287,21	-40,96
287,425	-8,19
287,64	-45,06
287,855	-26,62
288,07	16,38
288,285	-12,29
288,5	-79,87
288,715	-16,38
288,93	-6,14
289,145	-67,58
289,36	-0
289,575	4,1
289,79	98,3
290,004	45,06
290,219	-24,58
290,434	-53,25
290,649	-26,62
290,864	-114,69
291,079	22,53
291,294	-8,19
291,509	-43,01
291,724	-38,91
291,938	8,19
292,153	-49,15
292,368	-10,24
292,583	-43,01
292,798	-18,43
293,012	10,24
293,227	4,1
293,442	8,19
293,657	77,82
293,871	-16,38
294,086	-47,1
294,301	26,62
294,516	-4,1
294,73	26,62
294,945	28,67
295,16	-51,2
295,374	-18,43
295,589	6,14
295,804	4,1
296,018	-8,19
296,233	-55,3
296,447	-69,63
296,662	-28,67
296,877	94,21
297,091	-30,72
297,306	2,05
297,52	-14,34
297,735	-30,72
297,949	-79,87
298,164	6,14
298,378	-53,25
298,593	-47,1
298,807	6,14
299,022	-45,06
299,236	-2,05
299,451	-14,34
299,665	-38,91
299,88	40,96
300,094	-69,63
300,309	32,77
300,523	10,24
300,737	-94,21
300,952	-43,01
301,166	-10,24
301,381	43,01
301,595	88,06
301,809	34,82
302,024	2,05
302,238	10,24
302,452	-40,96
302,667	-65,54
302,881	4,1
303,095	34,82
303,309	10,24
303,524	-45,06
303,738	-47,1
303,952	-30,72
304,166	4,1
304,381	-18,43
304,595	14,34
304,809	-47,1
305,023	-34,82
305,237	-22,53
305,452	-71,68
305,666	-2,05
305,88	14,34
306,094	34,82
306,308	12,29
306,522	-96,25
306,736	-38,91
306,95	45,06
307,164	55,3
307,379	-45,06
307,593	-4,1
307,807	4,1
308,021	4,1
308,235	-32,77
308,449	-14,34
308,663	4,1
308,877	36,86
309,091	24,58
309,305	-32,77
309,519	8,19
309,733	18,43
309,947	14,34
310,161	94,21
310,374	-47,1
310,588	-28,67
310,802	-24,58
311,016	-20,48
311,23	24,58
311,444	16,38
311,658	-22,53
311,872	-94,21
312,085	-4,1
312,299	-0
312,513	-10,24
312,727	6,14
312,941	-49,15
313,154	-14,34
313,368	40,96
313,582	18,43
313,796	-22,53
314,009	-61,44
314,223	-14,34
314,437	16,38
314,651	-75,77
314,864	-2,05
315,078	-0
315,292	-26,62
315,505	8,19
315,719	12,29
315,933	-69,63
316,146	16,38
316,36	69,63
316,573	22,53
316,787	-28,67
317,001	47,1
317,214	-20,48
317,428	8,19
317,641	-4,1
317,855	-6,14
318,068	-57,34
318,282	-14,34
318,495	-43,01
318,709	-28,67
318,922	-47,1
319,136	6,14
319,349	-38,91
319,563	-6,14
319,776	-18,43
319,99	-12,29
320,203	-28,67
320,417	-38,91
320,63	4,1
320,843	24,58
321,057	-4,1
321,27	-16,38
321,483	-51,2
321,697	-28,67
321,91	-4,1
322,124	40,96
322,337	-32,77
322,55	32,77
322,763	8,19
322,977	8,19
323,19	-45,06
323,403	22,53
323,617	-12,29
323,83	-36,86
324,043	-32,77
324,256	-6,14
324,469	47,1
324,683	-75,77
324,896	-10,24
325,109	-59,39
325,322	10,24
325,535	43,01
325,748	49,15
325,962	51,2
326,175	-18,43
326,388	-40,96
326,601	24,58
326,814	-20,48
327,027	-71,68
327,24	-51,2
327,453	-59,39
327,666	-28,67
327,879	83,97
328,092	-38,91
328,305	-32,77
328,518	-18,43
328,731	-14,34
328,944	18,43
329,157	-57,34
329,37	24,58
329,583	-34,82
329,796	10,24
330,009	67,58
330,222	-53,25
330,435	8,19
330,648	-53,25
330,861	-16,38
331,073	-36,86
331,286	-57,34
331,499	-61,44
331,712	-28,67
331,925	-38,91
332,138	-69,63
332,35	-49,15
332,563	45,06
332,776	26,62
332,989	24,58
333,202	38,91
333,414	-26,62
333,627	-2,05
333,84	2,05
334,053	-32,77
334,265	-8,19
334,478	10,24
334,691	18,43
334,903	20,48
335,116	24,58
335,329	-26,62
335,541	-28,67
335,754	-0
335,966	6,14
336,179	-51,2
336,392	55,3
336,604	18,43
336,817	-20,48
337,029	-26,62
337,242	-0
337,454	-45,06
337,667	24,58
337,88	14,34
338,092	-22,53
338,305	-28,67
338,517	20,48
338,729	-20,48
338,942	-75,77
339,154	-10,24
339,367	-4,1
339,579	-38,91
339,792	20,48
340,004	18,43
340,217	-20,48
340,429	-30,72
340,641	12,29
340,854	-22,53
341,066	-47,1
341,278	2,05
341,491	-43,01
341,703	36,86
341,915	2,05
342,128	-6,14
342,34	8,19
342,552	10,24
342,764	18,43
342,977	-49,15
343,189	-53,25
343,401	-2,05
343,613	-40,96
343,826	-6,14
344,038	-28,67
344,25	-0
344,462	-8,19
344,674	-20,48
344,886	-30,72
345,099	12,29
345,311	-4,1
345,523	51,2
345,735	-40,96
345,947	-71,68
346,159	45,06
346,371	20,48
346,583	-40,96
346,795	18,43
347,007	-57,34
347,219	-8,19
347,431	75,77
347,643	28,67
347,855	24,58
348,067	-47,1
348,279	-45,06
348,491	-18,43
348,703	-16,38
348,915	-4,1
349,127	-24,58
349,339	45,06
349,551	-20,48
349,763	-30,72
349,975	-71,68
350,187	-18,43
350,399	-94,21
350,61	-75,77
350,822	-71,68
351,034	4,1
351,246	6,14
351,458	20,48
351,669	-6,14
351,881	-34,82
352,093	-36,86
352,305	45,06
352,517	-16,38
352,728	-49,15
352,94	-45,06
353,152	-12,29
353,363	-30,72
353,575	-10,24
353,787	-57,34
353,999	10,24
354,21	61,44
354,422	-22,53
354,633	16,38
354,845	-67,58
355,057	-6,14
355,268	53,25
355,48	30,72
355,692	-20,48
355,903	-10,24
356,115	73,73
356,326	-49,15
356,538	22,53
356,749	-14,34
356,961	16,38
357,172	-18,43
357,384	14,34
357,595	12,29
357,807	-4,1
358,018	6,14
358,23	-22,53
358,441	14,34
358,653	34,82
358,864	8,19
359,075	-12,29
359,287	-2,05
359,498	-18,43
359,709	4,1
359,921	18,43
360,132	73,73
360,344	16,38
360,555	10,24
360,766	-30,72
360,977	16,38
361,189	47,1
361,4	-24,58
361,611	30,72
361,823	8,19
362,034	2,05
362,245	-55,3
362,456	4,1
362,667	47,1
362,879	32,77
363,09	-16,38
363,301	20,48
363,512	-2,05
363,723	55,3
363,935	-16,38
364,146	10,24
364,357	32,77
364,568	22,53
364,779	10,24
364,99	63,49
365,201	43,01
365,412	-16,38
365,623	12,29
365,834	57,34
366,045	36,86
366,256	-75,77
366,467	12,29
366,678	55,3
366,889	83,97
367,1	73,73
367,311	34,82
367,522	-28,67
367,733	-38,91
367,944	69,63
368,155	-20,48
368,366	22,53
368,577	6,14
368,788	8,19
368,999	79,87
369,209	28,67
369,42	71,68
369,631	20,48
369,842	51,2
370,053	-0
370,264	-8,19
370,474	-49,15
370,685	32,77
370,896	40,96
371,107	18,43
371,317	32,77
371,528	26,62
371,739	-0
371,95	-8,19
372,16	-36,86
372,371	75,77
372,582	43,01
372,792	40,96
373,003	32,77
373,214	36,86
373,424	69,63
373,635	6,14
373,846	49,15
374,056	-32,77
374,267	57,34
374,477	12,29
374,688	32,77
374,898	165,89
375,109	-38,91
375,319	75,77
375,53	6,14
375,74	106,49
375,951	79,87
376,161	65,53
376,372	34,82
376,582	116,73
376,793	129,02
377,003	65,53
377,214	6,14
377,424	8,19
377,635	104,45
377,845	96,25
378,055	120,83
378,266	55,3
378,476	40,96
378,686	65,53
378,897	110,59
379,107	129,02
379,317	40,96
379,528	120,83
379,738	36,86
379,948	32,77
380,158	75,77
380,369	-55,3
380,579	57,34
380,789	38,91
380,999	73,73
381,21	88,06
381,42	79,87
381,63	12,29
381,84	-6,14
382,05	43,01
382,261	18,43
382,471	79,87
382,681	30,72
382,891	2,05
383,101	2,05
383,311	4,1
383,521	43,01
383,731	90,11
383,941	88,06
384,151	88,06
384,361	36,86
384,571	45,06
384,781	86,01
384,991	63,49
385,201	96,25
385,411	36,86
385,621	174,08
385,831	73,73
386,041	94,21
386,251	2,05
386,461	118,78
386,671	147,45
386,881	71,68
387,091	77,82
387,301	114,69
387,511	141,31
387,72	151,55
387,93	178,17
388,14	210,94
388,35	221,18
388,56	241,66
388,769	86,01
388,979	141,31
389,189	309,24
389,399	241,66
389,609	286,72
389,818	315,39
390,028	311,29
390,238	176,13
390,447	165,89
390,657	143,36
390,867	190,46
391,076	45,06
391,286	114,69
391,496	149,5
391,705	112,64
391,915	18,43
392,125	112,64
392,334	92,16
392,544	188,41
392,753	143,36
392,963	100,35
393,172	161,79
393,382	188,41
393,591	262,14
393,801	251,9
394,01	243,71
394,22	208,89
394,429	180,22
394,639	157,69
394,848	145,41
395,058	184,32
395,267	133,12
395,477	258,04
395,686	266,24
395,895	165,89
396,105	266,24
396,314	331,77
396,524	350,2
396,733	524,28
396,942	669,69
397,152	823,28
397,361	710,65
397,57	874,48
397,78	876,53
397,989	1003,5
398,198	1241,07
398,407	1239,02
398,617	1069,04
398,826	1271,79
399,035	1263,6
399,244	1277,93
399,453	1241,07
399,663	1480,68
399,872	1531,88
400,081	1765,35
400,29	1490,92
400,499	1490,92
400,708	1347,56
400,917	1687,53
401,127	1368,04
401,336	1738,73
401,545	1538,02
401,754	1669,09
401,963	1619,94
402,172	1859,56
402,381	1558,5
402,59	1796,07
402,799	1705,96
403,008	1699,81
403,217	1558,5
403,426	1927,14
403,635	1429,48
403,844	1757,16
404,053	1626,09
404,262	1798,12
404,471	1542,12
404,68	1910,75
404,888	1523,69
405,097	1720,29
405,306	1773,54
405,515	1972,19
405,724	1689,57
405,933	2058,21
406,142	1972,19
406,35	1990,63
406,559	2207,71
406,768	2232,29
406,977	2113,5
407,185	2324,44
407,394	2041,82
407,603	2361,31
407,812	2097,12
408,02	2246,62
408,229	1992,67
408,438	2222,05
408,646	2131,94
408,855	2263,01
409,064	2215,9
409,272	2482,14
409,481	2465,75
409,69	2637,78
409,898	2508,76
410,107	2717,65
410,315	2697,17
410,524	2875,35
410,733	2619,35
410,941	3035,09
411,15	2762,71
411,358	2815,96
411,567	2756,57
411,775	3033,04
411,984	2914,26
412,192	3260,37
412,401	2967,51
412,609	3022,8
412,818	3102,67
413,026	3209,17
413,234	3057,62
413,443	3211,21
413,651	3110,86
413,86	3121,1
414,068	3166,16
414,276	3311,57
414,485	3168,21
414,693	3284,94
414,901	3117,01
415,11	3456,97
415,318	3131,34
415,526	3416,01
415,734	3067,86
415,943	3235,79
416,151	3088,34
416,359	3282,89
416,567	3155,92
416,776	3295,18
416,984	3096,53
417,192	3403,72
417,4	2977,75
417,608	3184,59
417,817	3125,2
418,025	3207,12
418,233	3270,61
418,441	3229,65
418,649	3280,85
418,857	3600,33
419,065	3508,17
419,273	3438,54
419,481	3538,89
419,689	3786,69
419,897	3602,38
420,105	3788,74
420,313	3571,66
420,521	3532,75
420,729	3336,14
420,937	3590,09
421,145	3542,99
421,353	3835,85
421,561	3438,54
421,769	3749,83
421,977	3610,57
422,185	3557,32
422,393	3776,45
422,601	3823,56
422,809	3721,16
423,017	3764,17
423,224	3583,95
423,432	3829,7
423,64	3629
423,848	4011,97
424,056	3553,23
424,263	3729,35
424,471	3819,46
424,679	3829,7
424,887	4003,78
425,094	4120,51
425,302	3704,78
425,51	3932,1
425,718	3618,76
425,925	3762,12
426,133	3678,15
426,341	4304,83
426,548	4054,98
426,756	3956,68
426,964	3911,62
427,171	3948,48
427,379	3792,84
427,586	3710,92
427,794	3655,62
428,001	3588,04
428,209	3448,78
428,417	3291,09
428,624	3157,97
428,832	3237,84
429,039	2910,16
429,247	2893,78
429,454	3268,56
429,662	3907,52
429,869	3270,61
430,076	4001,73
430,284	3641,29
430,491	4210,62
430,699	4362,17
430,906	4618,17
431,114	4364,22
431,321	4755,38
431,528	4485,05
431,736	5230,51
431,943	5121,97
432,15	4865,97
432,358	4585,4
432,565	5089,2
432,772	4861,88
432,979	5439,4
433,187	5107,63
433,394	5232,56
433,601	5310,38
433,808	5752,74
434,016	5373,87
434,223	6109,09
434,43	6414,24
434,637	6031,27
434,844	6365,09
435,052	6520,73
435,259	6236,06
435,466	6172,58
435,673	5969,83
435,88	6541,21
436,087	6363,04
436,294	6504,35
436,501	5824,42
436,708	5875,62
436,915	5783,46
437,122	6154,15
437,329	5621,67
437,537	6231,97
437,743	6066,08
437,95	6311,84
438,157	6387,61
438,364	6832,02
438,571	6338,46
438,778	6596,51
438,985	7071,64
439,192	6807,45
439,399	6932,37
439,606	6803,35
439,813	7053,2
440,02	7757,71
440,227	7335,82
440,433	7380,88
440,64	7587,72
440,847	7653,26
441,054	7626,64
441,261	7802,76
441,467	7409,55
441,674	7624,59
441,881	7530,38
442,088	7819,14
442,294	7804,81
442,501	7911,3
442,708	7704,46
442,914	8155,01
443,121	8372,1
443,328	8013,7
443,534	8257,41
443,741	8093,57
443,948	7493,52
444,154	8044,42
444,361	7669,64
444,568	7890,82
444,774	7346,06
444,981	7608,2
445,187	7491,47
445,394	8226,69
445,6	8003,46
445,807	9095,03
446,013	8261,51
446,22	8511,36
446,426	8466,3
446,633	8746,87
446,839	8863,61
447,046	8492,93
447,252	8816,51
447,459	8824,7
447,665	8517,5
447,871	9072,5
448,078	9146,23
448,284	9000,82
448,491	9060,21
448,697	9545,58
448,903	9668,46
449,11	9842,54
449,316	9293,68
449,522	9607,02
449,728	9867,11
449,935	9834,35
450,141	9500,53
450,347	10110,82
450,553	9103,22
450,76	9217,91
450,966	9434,99
451,172	9224,05
451,378	9289,59
451,584	9494,38
451,791	9244,53
451,997	9400,18
452,203	9377,65
452,409	9600,88
452,615	9475,95
452,821	9234,29
453,027	9011,06
453,233	9742,19
453,44	9308,02
453,646	9711,47
453,852	9645,93
454,058	10106,73
454,264	9822,06
454,47	10284,9
454,676	10090,34
454,882	11093,85
455,088	9901,93
455,294	10413,92
455,5	10508,13
455,705	10901,34
455,911	10389,35
456,117	10596,19
456,323	10491,74
456,529	10231,65
456,735	10544,99
456,941	10637,15
457,147	10829,66
457,352	10782,56
457,558	10360,67
457,764	10938,2
457,97	10688,35
458,176	11118,42
458,381	11065,18
458,587	10719,07
458,793	11034,46
458,999	10811,23
459,204	11966,28
459,41	12465,99
459,616	11429,71
459,821	12070,73
460,027	12117,83
460,233	12513,09
460,438	12066,63
460,644	12468,03
460,85	12136,26
461,055	12236,61
461,261	12566,34
461,466	11652,94
461,672	11949,9
461,878	13100,86
462,083	12390,21
462,289	12261,19
462,494	12117,83
462,7	12087,11
462,905	11556,69
463,111	12709,69
463,316	12631,87
463,522	12762,94
463,727	13133,62
463,932	13254,45
464,138	13520,69
464,343	13717,29
464,549	13225,78
464,754	14264,1
464,959	14180,14
465,165	14145,32
465,37	13860,65
465,575	13727,53
465,781	14440,23
465,986	14386,98
466,191	14202,66
466,397	14350,12
466,602	13936,43
466,807	14661,41
467,012	14423,84
467,218	14964,51
467,423	14954,27
467,628	15644,43
467,833	15873,81
468,038	15724,3
468,244	15642,39
468,449	16238,34
468,654	16125,71
468,859	16047,88
469,064	15906,57
469,269	15736,59
469,474	15812,37
469,679	16822,02
469,885	16373,51
470,09	17174,27
470,295	17270,52
470,5	17155,83
470,705	17387,25
470,91	17436,41
471,115	17491,7
471,32	18579,17
471,525	18108,14
471,73	18157,29
471,935	18233,07
472,139	18200,3
472,344	18556,64
472,549	18810,59
472,754	19146,46
472,959	19060,45
473,164	18640,61
473,369	18984,67
473,574	19838,67
473,778	19971,79
473,983	19939,02
474,188	20389,58
474,393	19654,36
474,598	20176,59
474,802	19660,5
475,007	19953,36
475,212	20217,55
475,417	20375,24
475,621	20227,79
475,826	21173,95
476,031	20868,8
476,235	21368,51
476,44	21552,82
476,645	21870,26
476,849	22195,89
477,054	22695,59
477,259	22603,43
477,463	22922,91
477,668	22568,62
477,872	23934,61
478,077	23508,63
478,282	23547,54
478,486	23533,21
478,691	24258,19
478,895	23991,95
479,1	24471,18
479,304	24635,02
479,509	24489,61
479,713	24997,51
479,918	25214,59
480,122	25212,54
480,326	25794,17
480,531	25835,13
480,735	26347,12
480,94	26203,76
481,144	27231,84
481,348	26140,27
481,553	26881,64
481,757	26363,5
481,961	27330,14
482,166	27129,44
482,37	27557,47
482,574	26889,83
482,778	27354,72
482,983	27713,11
483,187	27119,2
483,391	27524,7
483,595	26941,03
483,8	26365,55
484,004	26703,46
484,208	26021,49
484,412	25155,2
484,616	25218,69
484,821	25212,54
485,025	24632,97
485,229	25173,63
485,433	24956,55
485,637	25652,86
485,841	25613,95
486,045	26191,47
486,249	26383,98
486,453	27041,38
486,657	27231,84
486,861	27792,98
487,065	26973,8
487,269	27965,01
487,473	27477,6
487,677	28616,27
487,881	29122,12
488,085	29142,6
488,289	29406,78
488,493	29996,6
488,697	30201,4
488,901	30154,29
489,105	30340,66
489,309	30535,21
489,512	30334,51
489,716	30817,83
489,92	30520,88
490,124	30232,11
490,328	30731,82
490,531	30391,86
490,735	29668,92
490,939	30563,89
491,143	30402,1
491,346	30590,51
491,55	30971,43
491,754	31295,01
491,958	31483,42
492,161	31241,76
492,365	31405,6
492,569	31594,01
492,772	31585,82
492,976	31899,16
493,18	32171,54
493,383	32775,69
493,587	32589,33
493,79	33011,21
493,994	32431,63
494,197	33054,22
494,401	33007,11
494,605	32808,46
494,808	33123,85
495,012	33383,94
495,215	33187,33
495,419	33783,29
495,622	33256,96
495,825	34055,67
496,029	33027,59
496,232	33664,51
496,436	32681,49
496,639	33494,53
496,843	32331,28
497,046	33191,43
497,249	32917
497,453	33183,24
497,656	33099,27
497,859	32882,19
498,063	33019,4
498,266	33592,83
498,469	32742,92
498,673	32906,76
498,876	32405,01
499,079	32949,77
499,282	31979,03
499,485	32390,67
499,689	31602,21
499,892	32697,87
500,095	31864,35
500,298	32675,34
500,501	31481,38
500,705	32126,49
500,908	32056,85
501,111	32130,58
501,314	32398,87
501,517	32251,41
501,72	32646,67
501,923	32261,65
502,126	32351,76
502,329	32556,56
502,532	31936,02
502,735	32292,37
502,938	32540,18
503,141	32704,01
503,344	32364,05
503,547	32259,6
503,75	32960,01
503,953	33347,08
504,156	33582,59
504,359	33705,47
504,562	33664,51
504,765	34106,87
504,968	33818,11
505,17	34264,57
505,373	33662,46
505,576	33699,33
505,779	33748,48
505,982	33773,05
506,185	34059,77
506,387	33846,78
506,59	33476,1
506,793	34246,13
506,996	33248,77
507,198	34303,48
507,401	33633,79
507,604	34637,3
507,807	34493,94
508,009	34862,57
508,212	34321,91
508,415	34788,85
508,617	35165,67
508,82	34819,56
509,022	34694,64
509,225	35165,67
509,428	34612,72
509,63	35583,46
509,833	34686,45
510,035	35765,73
510,238	35749,34
510,44	36253,14
510,643	36021,72
510,845	35522,02
511,048	35210,73
511,25	35384,8
511,453	35446,24
511,655	35988,95
511,858	35284,45
512,06	35134,95
512,262	35249,64
512,465	34934,25
512,667	35175,91
512,87	35278,31
513,072	34543,09
513,274	35243,49
513,477	35055,08
513,679	35409,38
513,881	35714,53
514,084	36382,16
514,286	35458,53
514,488	35716,57
514,69	36056,54
514,893	35409,38
515,095	34657,78
515,297	34381,3
515,499	33426,95
515,701	33244,68
515,904	32841,23
516,106	32599,57
516,308	32511,5
516,51	33379,84
516,712	33144,33
516,914	33455,62
517,116	33299,97
517,318	33809,92
517,52	33039,88
517,722	33742,33
517,925	33799,68
518,127	34981,35
518,329	35141,1
518,531	35073,51
518,733	35775,97
518,935	36613,59
519,136	36206,04
519,338	36926,92
519,54	36652,5
519,742	37006,8
519,944	36582,87
520,146	37043,66
520,348	37569,99
520,55	37656
520,752	37660,1
520,954	37674,43
521,155	37682,62
521,357	37735,87
521,559	37647,81
521,761	37934,53
521,963	37443,01
522,164	38002,11
522,366	38131,13
522,568	39314,86
522,77	39480,74
522,971	39830,94
523,173	38874,54
523,375	39445,93
523,576	39173,55
523,778	39550,37
523,98	39994,78
524,181	39828,9
524,383	38938,03
524,584	39101,87
524,786	38309,3
524,988	37897,66
525,189	37463,49
525,391	37246,41
525,592	36623,83
525,794	36365,78
525,995	36433,36
526,197	36775,37
526,398	36406,74
526,6	36900,3
526,801	37211,59
527,003	37182,92
527,204	37522,88
527,406	38436,28
527,607	38391,22
527,808	38733,23
528,01	38403,51
528,211	38722,99
528,412	39200,17
528,614	38796,72
528,815	38213,05
529,016	39126,44
529,218	38493,62
529,419	39058,86
529,62	38596,02
529,822	39437,73
530,023	38815,15
530,224	38981,04
530,425	38333,88
530,626	38227,38
530,828	37563,84
531,029	38469,04
531,23	37055,95
531,431	37162,44
531,632	36984,27
531,833	36885,97
532,035	36511,19
532,236	36695,5
532,437	37105,1
532,638	37152,2
532,839	37176,78
533,04	37070,28
533,241	36871,63
533,442	37891,52
533,643	37207,5
533,844	37926,33
534,045	37955
534,246	37467,59
534,447	37815,74
534,648	38061,5
534,849	37580,23
535,05	37162,44
535,251	37090,76
535,451	36861,39
535,652	37672,39
535,853	37004,75
536,054	36826,57
536,255	36902,35
536,456	36306,39
536,657	37160,39
536,857	36591,06
537,058	36425,17
537,259	37232,07
537,46	36902,35
537,66	36918,73
537,861	36152,79
538,062	36101,59
538,263	36304,34
538,463	35675,62
538,664	35335,65
538,865	35319,27
539,065	35845,6
539,266	34627,06
539,466	35294,69
539,667	34500,08
539,868	35393
540,068	34921,96
540,269	34723,31
540,469	35020,27
540,67	35192,29
540,87	34780,65
541,071	34897,39
541,271	35399,14
541,472	35007,98
541,672	34999,79
541,873	35403,24
542,073	34549,23
542,274	35208,68
542,474	34862,57
542,675	35057,13
542,875	35483,11
543,075	35526,11
543,276	35194,34
543,476	35765,73
543,676	34870,76
543,877	35196,39
544,077	34944,49
544,277	35239,4
544,478	35067,37
544,678	35585,5
544,878	35069,42
545,078	35452,39
545,279	35083,75
545,479	35544,55
545,679	35274,21
545,879	34881
546,079	34799,08
546,28	34866,67
546,48	33990,14
546,68	34061,82
546,88	34459,12
547,08	34932,2
547,28	34727,41
547,48	34856,43
547,68	34680,3
547,88	34743,79
548,081	34852,33
548,281	35169,77
548,481	35003,88
548,681	35186,15
548,881	34665,97
549,081	34696,69
549,28	34244,09
549,48	35151,34
549,68	34524,66
549,88	35044,84
550,08	34485,75
550,28	34735,6
550,48	34274,81
550,68	35268,07
550,88	34727,41
551,08	34848,24
551,279	34194,93
551,479	34825,71
551,679	34719,21
551,879	34645,49
552,079	34838
552,278	34500,08
552,478	34158,07
552,678	34506,23
552,878	34917,87
553,077	34369,01
553,277	34041,34
553,477	35175,91
553,676	34694,64
553,876	35167,72
554,076	34852,33
554,275	35157,48
554,475	34549,23
554,674	34778,61
554,874	34649,58
555,074	34182,65
555,273	34434,55
555,473	34864,62
555,672	33965,56
555,872	34196,98
556,071	33824,25
556,271	33766,91
556,47	33725,95
556,67	34090,49
556,869	33611,26
557,068	33912,31
557,268	33146,37
557,467	33189,38
557,667	32646,67
557,866	33056,26
558,065	32859,66
558,265	32007,7
558,464	32048,66
558,663	32398,87
558,863	32226,84
559,062	33173
559,261	32474,64
559,461	33418,75
559,66	32833,03
559,859	33019,4
560,058	32562,7
560,258	33043,98
560,457	32828,94
560,656	33287,68
560,855	32632,33
561,054	32665,1
561,253	32101,91
561,453	32554,51
561,652	32134,68
561,851	33029,64
562,05	32497,17
562,249	32790,03
562,448	32908,81
562,647	32736,78
562,846	32089,62
563,045	32196,12
563,244	31800,86
563,443	32409,11
563,642	31542,81
563,841	32146,97
564,04	32314,9
564,239	32259,6
564,438	31366,69
564,637	32153,11
564,836	31450,66
565,035	31368,74
565,234	31659,55
565,432	31530,53
565,631	31479,33
565,83	31665,69
566,029	31712,8
566,228	31925,78
566,427	31712,8
566,625	31557,15
566,824	30860,84
567,023	31809,05
567,222	30606,89
567,42	31149,6
567,619	30879,27
567,818	30615,08
568,016	30758,44
568,215	31172,13
568,414	30971,43
568,612	31061,54
568,811	30985,77
569,01	31227,43
569,208	30160,44
569,407	30148,15
569,605	29683,26
569,804	30215,73
570,002	29691,45
570,201	29734,46
570,4	29337,15
570,598	29449,79
570,797	29505,09
570,995	29713,98
571,193	29341,25
571,392	30060,09
571,59	29339,2
571,789	29967,93
571,987	29769,27
572,186	29865,53
572,384	29748,79
572,582	29898,3
572,781	29935,16
572,979	29924,92
573,177	29619,77
573,376	29341,25
573,574	29120,07
573,772	29308,48
573,971	29122,12
574,169	29140,55
574,367	28812,87
574,565	28931,65
574,763	28741,19
574,962	29128,26
575,16	28726,86
575,358	29132,36
575,556	28563,02
575,754	29118,02
575,952	28681,8
576,151	28954,18
576,349	28687,95
576,547	28874,31
576,745	29148,74
576,943	28556,88
577,141	28765,77
577,339	28419,66
577,537	28235,35
577,735	28251,73
577,933	28405,33
578,131	28911,17
578,329	28663,37
578,527	28646,99
578,725	28808,78
578,923	29181,51
579,121	29081,16
579,319	29142,6
579,516	29195,84
579,714	29210,18
579,912	29838,9
580,11	29582,91
580,308	30090,8
580,506	30150,2
580,704	30221,87
580,901	30740,01
581,099	30662,19
581,297	30408,24
581,495	30721,58
581,692	31100,45
581,89	30758,44
582,088	30932,52
582,285	30684,72
582,483	30987,82
582,681	30955,05
582,878	31266,34
583,076	31043,11
583,274	31497,76
583,471	31020,58
583,669	31137,32
583,866	30746,15
584,064	31245,86
584,262	30633,52
584,459	30780,97
584,657	30414,38
584,854	30934,57
585,052	30543,41
585,249	30916,14
585,447	31288,87
585,644	31301,15
585,841	31032,87
586,039	31460,9
586,236	30866,98
586,434	30854,7
586,631	31073,83
586,828	31147,56
587,026	30727,72
587,223	30645,8
587,42	30199,35
587,618	29611,58
587,815	28458,57
588,012	28739,15
588,21	27647,58
588,407	27999,83
588,604	27428,45
588,801	27651,67
588,999	27524,7
589,196	28034,64
589,393	28122,71
589,59	28470,86
589,787	28622,41
589,984	28964,42
590,182	28427,85
590,379	28821,06
590,576	28624,46
590,773	28505,68
590,97	28515,92
591,167	28927,56
591,364	28321,36
591,561	29042,24
591,758	28501,58
591,955	28884,55
592,152	29003,33
592,349	29083,2
592,546	29328,96
592,743	29177,41
592,94	28534,35
593,137	29101,64
593,334	28810,82
593,531	28646,99
593,727	28866,12
593,924	28882,5
594,121	28149,33
594,318	28573,26
594,515	28419,66
594,712	29152,84
594,908	28534,35
595,105	28808,78
595,302	27997,78
595,499	28182,1
595,696	28509,77
595,892	28782,15
596,089	28321,36
596,286	28540,49
596,482	28378,7
596,679	28522,06
596,876	28272,21
597,072	28302,93
597,269	28231,25
597,466	28130,9
597,662	27805,27
597,859	28339,79
598,055	28175,95
598,252	28515,92
598,448	27887,19
598,645	27858,52
598,841	27889,24
599,038	27946,58
599,234	27694,68
599,431	27766,36
599,627	27876,95
599,824	28175,95
600,02	27768,41
600,217	27962,97
600,413	27266,66
600,609	27561,56
600,806	27065,95
601,002	27649,63
601,198	27436,64
601,395	27137,63
601,591	26885,73
601,787	27760,22
601,984	27321,95
602,18	27401,82
602,376	27557,47
602,572	27733,59
602,769	27805,27
602,965	27969,11
603,161	28083,8
603,357	28460,62
603,553	27827,8
603,75	28192,34
603,946	27989,59
604,142	28216,91
604,338	27678,3
604,534	28233,3
604,73	27561,56
604,926	27414,11
605,122	27940,44
605,318	27891,29
605,514	27848,28
605,71	27917,91
605,906	27983,44
606,102	28370,51
606,298	27856,47
606,494	28272,21
606,69	28370,51
606,886	28399,18
607,082	27962,97
607,278	28870,22
607,474	28163,67
607,67	28339,79
607,866	27838,04
608,062	28427,85
608,257	28069,46
608,453	28300,88
608,649	28323,41
608,845	28456,53
609,041	28040,79
609,236	28132,95
609,432	27756,12
609,628	28186,19
609,824	28120,66
610,019	28341,84
610,215	28294,74
610,411	28757,58
610,606	28458,57
610,802	28612,17
610,998	28591,69
611,193	28823,11
611,389	28489,29
611,584	28378,7
611,78	28538,44
611,976	28933,7
612,171	29322,82
612,367	29273,67
612,562	29101,64
612,758	28841,54
612,953	28608,08
613,149	29386,3
613,344	28862,02
613,539	29494,85
613,735	29605,44
613,93	29593,15
614,126	29447,74
614,321	30023,22
614,517	29564,48
614,712	29570,62
614,907	29148,74
615,103	29343,3
615,298	28956,23
615,493	29396,54
615,688	28843,59
615,884	29320,77
616,079	28792,39
616,274	29734,46
616,47	29271,62
616,665	29933,11
616,86	29648,44
617,055	29959,73
617,25	30424,62
617,445	30854,7
617,641	30254,64
617,836	30545,45
618,031	30115,38
618,226	30451,25
618,421	30354,99
618,616	31170,08
618,811	30666,28
619,006	30920,23
619,201	30180,92
619,396	30983,72
619,591	29978,17
619,786	30871,08
619,981	30234,16
620,176	30938,66
620,371	30719,53
620,566	31069,73
620,761	30885,42
620,956	31061,54
621,151	30283,31
621,346	30416,43
621,541	30256,69
621,735	30516,78
621,93	29916,73
622,125	30570,03
622,32	29744,7
622,515	30101,04
622,709	29036,1
622,904	28882,5
623,099	29437,5
623,294	29443,65
623,488	28968,52
623,683	29095,49
623,878	28331,6
624,072	28749,39
624,267	28440,14
624,462	28440,14
624,656	27919,96
624,851	27891,29
625,046	27715,16
625,24	27852,37
625,435	27807,32
625,629	28003,92
625,824	27688,54
626,018	28364,37
626,213	27301,47
626,407	28343,89
626,602	26924,65
626,796	26914,41
626,991	26259,06
627,185	26125,94
627,38	25697,91
627,574	25386,62
627,768	25230,97
627,963	25288,32
628,157	25292,41
628,352	25753,21
628,546	25013,89
628,74	26015,35
628,935	25294,46
629,129	25319,04
629,323	24403,6
629,517	24716,93
629,712	24960,64
629,906	25173,63
630,1	24495,75
630,294	25263,74
630,489	25425,53
630,683	25859,7
630,877	25327,23
631,071	25384,57
631,265	25298,56
631,459	25540,22
631,653	25570,94
631,848	25984,63
632,042	25974,39
632,236	26154,61
632,43	25452,16
632,624	26281,58
632,818	25732,73
633,012	25867,89
633,206	25585,27
633,4	26252,91
633,594	25898,61
633,788	26496,62
633,982	26551,91
634,176	26224,24
634,369	26164,85
634,563	26588,78
634,757	26656,36
634,951	27350,62
635,145	26517,1
635,339	26490,48
635,533	26531,44
635,726	26734,18
635,92	26420,84
636,114	27014,76
636,308	26443,37
636,501	26740,33
636,695	26855,01
636,889	27270,75
637,083	27231,84
637,276	27006,56
637,47	26824,29
637,664	27395,68
637,857	27027,04
638,051	27412,06
638,244	27285,09
638,438	27283,04
638,632	26920,55
638,825	26830,44
639,019	26588,78
639,212	26742,38
639,406	26492,52
639,599	26904,17
639,793	26519,15
639,986	25947,76
640,18	26429,04
640,373	26216,05
640,567	26431,08
640,76	26517,1
640,954	25908,85
641,147	26250,86
641,34	26467,95
641,534	27180,64
641,727	26326,64
641,92	26869,35
642,114	26793,58
642,307	27174,5
642,5	27070,05
642,694	26173,04
642,887	26336,88
643,08	26652,27
643,273	26097,27
643,467	26498,67
643,66	26244,72
643,853	26891,88
644,046	26289,77
644,239	26981,99
644,432	26343,02
644,626	26353,26
644,819	25482,88
645,012	25849,46
645,205	26095,22
645,398	25763,45
645,591	25904,76
645,784	26250,86
645,977	25615,99
646,17	25796,21
646,363	25368,19
646,556	25286,27
646,749	25298,56
646,942	25708,15
647,135	25202,3
647,328	25382,52
647,521	24520,33
647,714	24575,62
647,907	24876,68
648,099	25298,56
648,292	25185,92
648,485	25089,67
648,678	24397,45
648,871	24747,65
649,064	24389,26
649,256	25038,47
649,449	24299,15
649,642	24972,93
649,835	25011,84
650,027	25542,27
650,22	25017,99
650,413	24999,55
650,605	24594,06
650,798	25011,84
650,991	24503,95
651,183	24632,97
651,376	24168,08
651,568	24323,72
651,761	24268,43
651,954	24622,73
652,146	24557,19
652,339	24952,45
652,531	24995,46
652,724	25400,96
652,916	24721,03
653,109	25403
653,301	24741,51
653,494	25321,09
653,686	24927,88
653,879	25259,65
654,071	24495,75
654,263	24407,69
654,456	24182,41
654,648	24225,42
654,84	23713,43
655,033	23695
655,225	22947,49
655,417	22193,84
655,61	21317,31
655,802	21270,2
655,994	20285,13
656,186	21128,89
656,379	21208,76
656,571	22476,46
656,763	22185,65
656,955	22488,74
657,148	22974,11
657,34	23281,31
657,532	22914,72
657,724	23162,53
657,916	22896,29
658,108	23463,58
658,3	23594,65
658,492	24075,92
658,684	23778,97
658,876	24217,23
659,068	24237,71
659,26	24600,2
659,452	24575,62
659,644	24970,88
659,836	24903,3
660,028	24579,72
660,22	24227,47
660,412	25200,26
660,604	24243,85
660,796	24805
660,988	24456,84
661,18	24522,38
661,372	24522,38
661,563	24630,92
661,755	24125,07
661,947	25034,37
662,139	24798,85
662,331	24897,16
662,522	24215,18
662,714	24825,48
662,906	24256,14
663,097	24424,08
663,289	24149,65
663,481	24594,06
663,673	24151,7
663,864	24346,25
664,056	24364,68
664,247	24518,28
664,439	23953,04
664,631	24368,78
664,822	23961,23
665,014	24815,24
665,205	24368,78
665,397	24163,98
665,588	24057,49
665,78	24118,93
665,971	23824,02
666,163	23994
666,354	23758,49
666,546	23979,67
666,737	23977,62
666,929	24393,36
667,12	24016,53
667,311	23977,62
667,503	23897,75
667,694	24350,35
667,885	23574,17
668,077	24247,95
668,268	23586,46
668,459	23864,98
668,651	23582,36
668,842	23656,09
669,033	23217,82
669,224	23717,53
669,416	23326,36
669,607	23955,09
669,798	24069,78
669,989	23885,46
670,18	23979,67
670,371	23338,65
670,563	23545,5
670,754	23508,63
670,945	23348,89
671,136	24389,26
671,327	23994
671,518	23539,35
671,709	23246,49
671,9	23496,35
672,091	23230,11
672,282	23635,61
672,473	23123,62
672,664	23365,28
672,855	23037,6
673,046	23488,15
673,237	22877,86
673,428	23264,92
673,619	23500,44
673,809	23484,06
674	22693,54
674,191	22986,4
674,382	22382,25
674,573	22636,2
674,764	22675,11
674,954	23017,12
675,145	22859,43
675,336	23361,18
675,527	23463,58
675,717	23359,13
675,908	22886,05
676,099	23303,84
676,289	23119,52
676,48	23129,76
676,671	22599,34
676,861	22558,38
677,052	22185,65
677,243	22261,42
677,433	22324,91
677,624	22388,39
677,814	22218,41
678,005	22658,73
678,195	22322,86
678,386	22367,91
678,576	21755,57
678,767	22320,81
678,957	22359,72
679,148	22693,54
679,338	22322,86
679,529	22402,73
679,719	21853,87
679,909	22421,16
680,1	22261,42
680,29	22580,9
680,481	22447,79
680,671	22462,12
680,861	22073,01
681,052	22300,33
681,242	21960,37
681,432	22736,55
681,622	22091,44
681,813	21972,66
682,003	22138,54
682,193	22419,11
682,383	22595,24
682,573	22326,96
682,764	22017,71
682,954	22339,24
683,144	21864,11
683,334	22396,59
683,524	21984,94
683,714	22154,93
683,904	22030
684,094	22075,06
684,284	21937,84
684,474	22417,07
684,664	22267,56
684,854	22570,66
685,044	22085,29
685,234	21604,02
685,424	21962,42
685,614	21814,96
685,804	20899,52
685,994	20410,06
686,184	19259,1
686,374	18046,7
686,564	16174,86
686,753	14569,25
686,943	13014,84
687,133	12693,31
687,323	12195,65
687,513	12857,15
687,702	12988,22
687,892	13528,88
688,082	13623,09
688,272	14163,75
688,461	13766,45
688,651	13664,05
688,841	13182,77
689,03	13381,43
689,22	13330,23
689,41	13815,6
689,599	13594,42
689,789	13862,7
689,979	13788,97
690,168	14536,48
690,358	14536,48
690,547	15437,59
690,737	15757,07
690,926	16023,31
691,116	15071
691,305	16283,4
691,495	16600,83
691,684	16936,7
691,874	17467,13
692,063	17686,26
692,252	17432,31
692,442	17819,38
692,631	17753,84
692,82	17964,78
693,01	17776,37
693,199	18282,22
693,388	17655,54
693,578	17778,42
693,767	17604,34
693,956	17784,56
694,146	17614,58
694,335	17919,73
694,524	18054,89
694,713	18046,7
694,902	17837,81
695,092	18265,83
695,281	17923,82
695,47	18425,57
695,659	18493,16
695,848	18964,19
696,037	18910,94
696,226	19087,07
696,415	19064,54
696,604	19631,83
696,793	19443,42
696,982	19099,36
697,171	19072,73
697,36	19590,87
697,549	19121,88
697,738	19437,27
697,927	18630,37
698,116	19283,67
698,305	18769,63
698,494	19031,77
698,683	19367,64
698,872	18999,01
699,061	18597,6
699,25	18732,77
699,438	18790,11
699,627	18568,93
699,816	18384,62
700,005	18892,51
700,193	18659,04
700,382	18650,85
700,571	18140,91
700,76	18175,72
700,948	18935,52
701,137	18515,69
701,326	18448,1
701,514	18616,04
701,703	18106,09
701,892	17983,21
702,08	17932,01
702,269	18458,34
702,457	18257,64
702,646	18749,15
702,834	18532,07
703,023	18566,88
703,212	18534,12
703,4	19050,21
703,589	18298,6
703,777	18892,51
703,965	18591,46
704,154	19087,07
704,342	18939,61
704,531	19144,41
704,719	18233,07
704,907	18601,7
705,096	18290,41
705,284	18454,25
705,472	18247,4
705,661	18640,61
705,849	18521,83
706,037	18679,52
706,226	17897,2
706,414	18237,16
706,602	18454,25
706,79	19056,35
706,979	18339,56
707,167	18630,37
707,355	18812,64
707,543	19117,79
707,731	18718,43
707,919	18628,32
708,107	17884,91
708,296	18001,65
708,484	17817,33
708,672	17989,36
708,86	17876,72
709,048	18548,45
709,236	18083,56
709,424	18372,33
709,612	18054,89
709,8	18233,07
709,988	17469,17
710,176	17594,1
710,364	17772,27
710,551	18138,86
710,739	18063,08
710,927	18167,53
711,115	17702,64
711,303	17901,29
711,491	17440,5
711,679	17850,1
711,866	17487,61
712,054	17911,53
712,242	17874,67
712,43	17913,58
712,617	17272,57
712,805	17428,21
712,993	17557,24
713,181	17555,19
713,368	17374,97
713,556	17428,21
713,744	16666,37
713,931	17471,22
714,119	17522,42
714,306	17755,89
714,494	17196,79
714,682	17227,51
714,869	16975,61
715,057	17053,44
715,244	16903,93
715,432	17489,65
715,619	16809,73
715,807	17030,91
715,994	16901,89
716,182	16443,14
716,369	15748,88
716,556	15331,09
716,744	15046,43
716,931	14839,58
717,119	14024,49
717,306	13829,93
717,493	13434,67
717,681	13621,04
717,868	12891,96
718,055	12955,45
718,242	12672,83
718,43	12388,16
718,617	11538,26
718,804	11509,58
718,991	11208,53
719,179	11304,79
719,366	11503,44
719,553	11364,18
719,74	10665,82
719,927	11138,9
720,114	10809,18
720,301	11204,44
720,488	11069,27
720,676	11728,72
720,863	11640,65
721,05	12443,46
721,237	12736,32
721,424	13504,31
721,611	13463,35
721,798	13162,3
721,985	13301,56
722,172	13793,07
722,358	13449,01
722,545	13391,67
722,732	13293,37
722,919	13770,54
723,106	12977,98
723,293	12990,27
723,48	12422,98
723,667	12310,34
723,853	12023,62
724,04	12543,81
724,227	12341,06
724,414	12097,35
724,6	11716,43
724,787	12052,3
724,974	11618,13
725,161	12119,88
725,347	12025,67
725,534	12242,76
725,72	11695,95
725,907	11941,71
726,094	11734,86
726,28	11734,86
726,467	11849,55
726,653	12103,5
726,84	11591,5
727,027	12261,19
727,213	11700,05
727,4	11978,57
727,586	11667,28
727,773	11624,27
727,959	11310,93
728,145	12080,97
728,332	11661,13
728,518	12349,25
728,705	11798,35
728,891	11695,95
729,077	11503,44
729,264	11720,53
729,45	11528,02
729,636	12187,46
729,823	11794,25
730,009	11947,85
730,195	12068,68
730,382	11958,09
730,568	11800,4
730,754	11663,18
730,94	11495,25
731,126	11755,34
731,313	11642,7
731,499	12054,34
731,685	12017,48
731,871	12418,88
732,057	12513,09
732,243	12730,17
732,429	12527,42
732,615	12627,78
732,801	12713,79
732,987	12910,39
733,173	13041,46
733,359	13258,55
733,545	13047,61
733,731	13180,73
733,917	13111,1
734,103	13535,03
734,289	13190,97
734,475	13494,07
734,661	13588,27
734,847	13756,21
735,033	12937,02
735,219	13025,08
735,404	13363
735,59	13272,89
735,776	12918,59
735,962	12971,83
736,148	12867,39
736,333	13244,21
736,519	13166,39
736,705	13471,54
736,89	12681,02
737,076	12906,3
737,262	12943,16
737,447	13674,29
737,633	13307,7
737,819	13567,79
738,004	13215,54
738,19	13363
738,375	12828,48
738,561	13078,33
738,747	12808
738,932	13279,03
739,118	12709,69
739,303	12914,49
739,489	12672,83
739,674	12754,75
739,859	13002,55
740,045	13160,25
740,23	12693,31
740,416	12883,77
740,601	12486,47
740,786	13047,61
740,972	13158,2
741,157	13201,21
741,342	12613,44
741,528	12998,46
741,713	12521,28
741,898	12797,76
742,084	12502,85
742,269	12773,18
742,454	12375,88
742,639	12670,78
742,824	12406,59
743,01	12861,24
743,195	12949,31
743,38	13160,25
743,565	12721,98
743,75	12547,9
743,935	12885,82
744,12	12912,44
744,305	12527,42
744,49	12662,59
744,675	12386,11
744,86	12769,09
745,045	12384,07
745,23	12748,61
745,415	12572,48
745,6	13068,09
745,785	13039,42
745,97	13010,75
746,155	12597,06
746,34	12517,18
746,525	12212,04
746,71	12666,69
746,895	12042,06
747,079	12369,73
747,264	12511,04
747,449	12429,12
747,634	12076,87
747,819	12300,1
748,003	11837,26
748,188	12541,76
748,373	12185,41
748,557	12691,26
748,742	12334,92
748,927	12463,94
749,111	12109,64
749,296	12085,06
749,481	11747,15
749,665	11810,64
749,85	11749,2
750,034	11990,86
750,219	11706,19
750,404	11896,65
750,588	11663,18
750,773	11892,55
750,957	11583,31
751,141	11773,77
751,326	11652,94
751,51	12238,66
751,695	11614,03
751,879	11792,2
752,064	11544,4
752,248	11673,42
752,432	11618,13
752,617	11575,12
752,801	11427,67
752,985	11415,38
753,17	11052,89
753,354	11269,97
753,538	11343,7
753,722	11388,75
753,907	11312,98
754,091	11546,45
754,275	11188,05
754,459	11820,88
754,643	11544,4
754,828	11470,67
755,012	11345,75
755,196	11288,4
755,38	11190,1
755,564	11253,59
755,748	11106,13
755,932	11677,52
756,116	10915,67
756,3	11194,2
756,484	10651,49
756,668	10897,24
756,852	10479,46
757,036	10968,92
757,22	10227,56
757,404	10622,81
757,588	10258,28
757,772	10997,59
757,956	10682,2
758,14	10760,03
758,323	10667,87
758,507	10667,87
758,691	10221,41
758,875	10151,78
759,059	9260,91
759,242	8966,01
759,426	7686,03
759,61	6715,29
759,794	5257,14
759,977	4143,04
760,161	2697,17
760,345	1945,57
760,528	1105,9
760,712	720,88
760,895	393,21
761,079	294,91
761,263	200,7
761,446	303,1
761,63	299
761,813	438,27
761,997	446,46
762,18	489,46
762,364	419,83
762,547	364,54
762,731	243,71
762,914	184,32
763,098	118,78
763,281	67,58
763,464	75,77
763,648	49,15
763,831	110,59
764,015	192,51
764,198	79,87
764,381	221,18
764,564	262,14
764,748	380,92
764,931	550,9
765,114	704,5
765,297	929,78
765,481	1322,99
765,664	1574,89
765,847	2238,43
766,03	2533,34
766,213	3006,42
766,397	3278,8
766,58	4003,78
766,763	4329,41
766,946	5068,72
767,129	5267,38
767,312	6084,52
767,495	6375,33
767,678	6963,09
767,861	7366,54
768,044	7747,47
768,227	8214,4
768,41	8519,55
768,593	9021,3
768,776	9236,34
768,959	9123,7
769,142	9564,01
769,324	9441,14
769,507	10030,95
769,69	9865,07
769,873	10180,45
770,056	10207,08
770,239	10450,78
770,421	10571,61
770,604	10735,45
770,787	10921,82
770,97	11349,84
771,152	11026,26
771,335	11396,95
771,518	11112,28
771,7	11243,35
771,883	11036,5
772,066	11573,07
772,248	11421,52
772,431	12259,14
772,613	11618,13
772,796	11958,09
772,978	11970,38
773,161	12293,96
773,343	12246,85
773,526	11921,23
773,708	11794,25
773,891	12070,73
774,073	11931,47
774,256	12146,5
774,438	11947,85
774,621	11800,4
774,803	11517,78
774,985	11747,15
775,168	11343,7
775,35	11335,51
775,532	11382,61
775,715	11870,03
775,897	11691,85
776,079	11958,09
776,261	11962,19
776,444	12224,33
776,626	12183,37
776,808	12476,23
776,99	12207,94
777,173	12341,06
777,355	11794,25
777,537	11794,25
777,719	11497,3
777,901	12083,02
778,083	11698
778,265	11919,18
778,447	11480,91
778,629	11775,82
778,811	11564,88
778,993	11962,19
779,175	11843,4
779,357	11874,12
779,539	11417,43
779,721	11511,63
779,903	11323,22
780,085	11118,42
780,267	11120,47
780,449	11640,65
780,631	11274,07
780,812	11355,99
780,994	11507,54
781,176	11683,66
781,358	11267,92
781,54	11284,31
781,721	11159,38
781,903	11558,74
782,085	11329,36
782,267	11382,61
782,448	11038,55
782,63	11292,5
782,812	10749,79
782,993	10735,45
783,175	10637,15
783,357	11003,74
783,538	10692,44
783,72	10819,42
783,901	9946,98
784,083	10153,83
784,264	9666,41
784,446	9910,12
784,627	9678,7
784,809	10291,04
784,99	10233,7
785,172	10010,47
785,353	9936,74
785,535	10415,97
785,716	9877,35
785,897	9795,43
786,079	9873,26
786,26	10209,12
786,441	10053,48
786,623	9842,54
786,804	9553,77
786,985	9781,1
787,167	9209,72
787,348	9535,34
787,529	9316,21
787,71	9383,79
787,891	9064,31
788,073	9336,69
788,254	9176,95
788,435	9273,2
788,616	8859,51
788,797	9166,71
788,978	9133,94
789,159	9289,59
789,34	9027,45
789,522	9041,78
789,703	8710,01
789,884	8712,06
790,065	8421,25
790,246	8859,51
790,427	8542,08
790,607	8851,32
790,788	8132,48
790,969	8583,04
791,15	8095,62
791,331	8314,75
791,512	8071,04
791,693	8339,33
791,874	8503,17
792,054	8386,43
792,235	7997,32
792,416	8169,35
792,597	7649,16
792,778	7884,68
792,958	7950,21
793,139	8306,56
793,32	8226,69
793,5	8413,06
793,681	7987,08
793,862	7966,6
794,042	7980,93
794,223	8124,29
794,404	7821,19
794,584	7720,84
794,765	7415,69
794,945	7739,27
795,126	7501,71
795,306	7899,02
795,487	7501,71
795,667	7612,3
795,848	7180,18
796,028	7466,89
796,209	7352,21
796,389	7475,09
796,57	7219,09
796,75	7157,65
796,93	6676,38
797,111	6909,85
797,291	6907,8
797,471	7284,62
797,652	7198,61
797,832	7436,17
798,012	7137,17
798,192	7237,52
798,373	7317,39
798,553	7518,09
798,733	7106,45
798,913	7032,72
799,093	6764,44
799,274	7053,2
799,454	6705,05
799,634	7073,68
799,814	6698,91
799,994	6879,13
800,174	6412,19
800,354	6674,33
800,534	6399,9
800,714	6608,8
800,894	6723,48
801,074	6793,11
801,254	6549,4
801,434	6639,51
801,614	6264,74
801,794	6404
801,974	6373,28
802,154	6418,33
802,334	6317,98
802,514	6492,06
802,693	6088,61
802,873	6621,08
803,053	6297,5
803,233	6158,24
803,413	6469,53
803,592	6473,63
803,772	6285,22
803,952	6682,52
804,131	6305,7
804,311	6383,52
804,491	6262,69
804,67	6016,93
804,85	5803,94
805,03	6215,59
805,209	5812,14
805,389	6045,6
805,568	5658,54
805,748	6184,87
805,928	5932,97
806,107	6256,54
806,287	5836,71
806,466	6277,02
806,646	5834,66
806,825	6094,76
807,004	5912,49
807,184	6123,43
807,363	5805,99
807,543	6133,67
807,722	5910,44
807,901	5885,86
808,081	5558,19
808,26	5908,39
808,439	5607,34
808,619	5877,67
808,798	5769,13
808,977	5853,09
809,156	5615,53
809,336	5812,14
809,515	5437,36
809,694	5681,07
809,873	5273,52
810,052	5658,54
810,231	5283,76
810,411	5425,07
810,59	5011,38
810,769	5349,29
810,948	5044,15
811,127	5433,26
811,306	5322,67
811,485	5398,45
811,664	4956,08
811,843	5150,64
812,022	4794,29
812,201	5074,87
812,38	4943,8
812,559	4908,98
812,737	4720,57
812,916	4906,93
813,095	4493,24
813,274	4630,46
813,453	4413,37
813,632	4605,88
813,811	4040,64
813,989	3975,11
814,168	3606,47
814,347	3968,96
814,526	3942,34
814,704	4011,97
814,883	3485,64
815,062	3555,27
815,24	3223,5
815,419	3338,19
815,598	3125,2
815,776	3256,27
815,955	3063,76
816,133	3155,92
816,312	2834,39
816,49	2756,57
816,669	2637,78
816,847	2719,7
817,026	2551,77
817,204	2641,88
817,383	2680,79
817,561	2908,12
817,74	2684,89
817,918	2787,29
818,097	2588,63
818,275	2559,96
818,453	2371,55
818,632	2523,1
818,81	2439,13
818,988	2369,5
819,167	2273,25
819,345	2645,98
819,523	2369,5
819,701	2691,03
819,879	2502,62
820,058	2717,65
820,236	2357,21
820,414	2883,54
820,592	2529,24
820,77	2947,03
820,948	3035,09
821,127	3297,23
821,305	2975,7
821,483	3184,59
821,661	3149,78
821,839	3356,62
822,017	3030,99
822,195	3127,25
822,373	2873,3
822,551	2869,2
822,729	2660,31
822,907	2617,3
823,085	2174,94
823,262	2174,94
823,44	1671,14
823,618	1820,64
823,796	1679,33
823,974	1800,16
824,152	1843,17
824,329	2215,9
824,507	2131,94
824,685	2342,88
824,863	2447,32
825,04	2734,04
825,218	2793,43
825,396	3067,86
825,574	2906,07
825,751	3059,67
825,929	3014,61
826,107	2828,24
826,284	2775
826,462	2822,1
826,639	2752,47
826,817	2885,59
826,994	2627,54
827,172	2926,55
827,349	2668,5
827,527	2676,7
827,704	2437,08
827,882	2461,66
828,059	2152,42
828,237	2385,88
828,414	2230,24
828,591	2437,08
828,769	2115,55
828,946	2238,43
829,124	2070,5
829,301	2133,98
829,478	2039,78
829,655	2115,55
829,833	1884,13
830,01	2090,98
830,187	1961,95
830,364	2076,64
830,542	1941,47
830,719	2144,22
830,896	1830,88
831,073	2183,13
831,25	1992,67
831,427	2232,29
831,604	2095,07
831,782	2430,94
831,959	2330,59
832,136	2465,75
832,313	2150,37
832,49	2105,31
832,667	1959,91
832,844	2207,71
833,021	2009,06
833,198	1957,86
833,374	2039,78
833,551	2271,2
833,728	2146,27
833,905	2312,16
834,082	1984,48
834,259	2146,27
834,436	1794,02
834,612	2246,62
834,789	2146,27
834,966	2369,5
835,143	2222,05
835,319	2213,85
835,496	2009,06
835,673	2054,11
835,85	2086,88
836,026	2396,12
836,203	1996,77
836,38	2191,33
836,556	1912,8
836,733	2039,78
836,909	1894,37
837,086	2193,37
837,262	2025,44
837,439	2105,31
837,616	2256,86
837,792	2287,58
837,968	2191,33
838,145	2254,81
838,321	2009,06
838,498	2279,39
838,674	2142,18
838,851	1968,1
839,027	1910,75
839,203	2189,28
839,38	2000,87
839,556	2129,89
839,732	1804,26
839,909	2004,96
840,085	1908,71
840,261	2246,62
840,437	2205,66
840,614	2240,48
840,79	1839,08
840,966	1976,29
841,142	1869,8
841,318	2062,3
841,494	1941,47
841,671	1929,19
841,847	1771,49
842,023	1968,1
842,199	1853,41
842,375	1869,8
842,551	1834,98
842,727	2080,74
842,903	1970,15
843,079	2068,45
843,255	1650,66
843,431	1888,23
843,607	1869,8
843,783	1904,61
843,959	1855,46
844,134	1832,93
844,31	1697,77
844,486	1632,23
844,662	1609,7
844,838	1703,91
845,013	1574,89
845,189	1714,15
845,365	1574,89
845,541	1736,68
845,716	1679,33
845,892	1581,03
846,068	1714,15
846,244	1820,64
846,419	1542,12
846,595	1714,15
846,77	1593,32
846,946	1800,16
847,122	1650,66
847,297	1708,01
847,473	1777,64
847,648	1697,77
847,824	1546,22
847,999	1380,33
848,175	1363,95
848,35	1609,7
848,526	1458,15
848,701	1617,9
848,876	1452,01
849,052	1474,54
849,227	1421,29
849,403	1452,01
849,578	1441,77
849,753	1339,37
849,929	1142,77
850,104	1390,57
850,279	1159,15
850,454	1036,27
850,63	1011,7
850,805	1023,98
850,98	1009,65
851,155	1009,65
851,33	989,17
851,505	1150,96
851,681	1085,42
851,856	1099,76
852,031	1038,32
852,206	1105,9
852,381	944,11
852,556	1026,03
852,731	1009,65
852,906	1146,86
853,081	1081,33
853,256	1103,86
853,431	1044,46
853,606	1036,27
853,781	870,39
853,956	1071,09
854,131	917,49
854,305	935,92
854,48	675,83
854,655	749,56
854,83	557,05
855,005	624,63
855,18	413,69
855,354	526,33
855,529	505,85
855,704	636,92
855,879	624,63
856,053	897,01
856,228	776,18
856,403	976,88
856,577	940,02
856,752	954,35
856,926	849,91
857,101	886,77
857,276	929,78
857,45	835,57
857,625	739,32
857,799	804,85
857,974	776,18
858,148	958,45
858,323	751,6
858,497	802,8
858,672	638,97
858,846	849,91
859,02	602,1
859,195	767,99
859,369	692,21
859,543	921,59
859,718	677,88
859,892	899,06
860,066	811
860,241	860,15
860,415	774,13
860,589	661,49
860,763	540,66
860,938	698,36
861,112	614,39
861,286	610,29
861,46	608,25
861,634	681,97
861,808	587,77
861,982	692,21
862,157	630,77
862,331	598,01
862,505	612,34
862,679	608,25
862,853	602,1
863,027	610,29
863,201	471,03
863,375	565,24
863,549	548,86
863,722	507,9
863,896	483,32
864,07	610,29
864,244	555
864,418	581,62
864,592	430,07
864,766	520,18
864,939	497,66
865,113	587,77
865,287	509,94
865,461	524,28
865,634	421,88
865,808	520,18
865,982	487,42
866,156	538,62
866,329	450,55
866,503	374,78
866,676	288,76
866,85	256
867,024	262,14
867,197	286,72
867,371	161,79
867,544	274,43
867,718	251,9
867,891	315,39
868,065	327,67
868,238	368,63
868,412	446,46
868,585	337,91
868,759	266,24
868,932	380,92
869,105	382,97
869,279	370,68
869,452	364,54
869,625	350,2
869,799	321,53
869,972	311,29
870,145	260,09
870,319	421,88
870,492	268,28
870,665	315,39
870,838	299
871,011	258,04
871,185	245,76
871,358	376,83
871,531	335,87
871,704	258,04
871,877	262,14
872,05	237,56
872,223	264,19
872,396	284,67
872,569	311,29
872,742	280,57
872,915	184,32
873,088	266,24
873,261	239,61
873,434	247,8
873,607	110,59
873,78	241,66
873,953	231,42
874,126	284,67
874,299	223,23
874,471	206,84
874,644	163,84
874,817	180,22
874,99	200,7
875,163	169,98
875,335	210,94
875,508	208,89
875,681	215,04
875,853	143,36
876,026	196,6
876,199	247,8
876,371	129,02
876,544	215,04
876,717	202,75
876,889	149,5
877,062	135,17
877,234	206,84
877,407	149,5
877,579	151,55
877,752	176,13
877,924	229,37
878,097	233,47
878,269	153,6
878,442	137,21
878,614	231,42
878,786	192,51
878,959	180,22
879,131	135,17
879,303	212,99
879,476	192,51
879,648	194,56
879,82	176,13
879,993	178,17
880,165	149,5
880,337	182,27
880,509	118,78
880,681	83,97
880,854	178,17
881,026	94,21
881,198	71,68
881,37	182,27
881,542	81,92
881,714	65,53
881,886	124,93
882,058	63,49
882,23	153,6
882,402	110,59
882,574	83,97
882,746	169,98
882,918	110,59
883,09	45,06
883,262	139,26
883,434	77,82
883,606	159,74
883,778	124,93
883,95	149,5
884,122	108,54
884,293	104,45
884,465	96,25
884,637	133,12
884,809	231,42
884,98	94,21
885,152	90,11
885,324	94,21
885,496	178,17
885,667	151,55
885,839	108,54
886,011	71,68
886,182	65,53
886,354	77,82
886,525	114,69
886,697	114,69
886,869	133,12
887,04	59,39
887,212	71,68
887,383	86,01
887,555	79,87
887,726	141,31
887,897	75,77
888,069	106,49
888,24	81,92
888,412	45,06
888,583	79,87
888,754	26,62
888,926	43,01
889,097	83,97
889,268	65,53
889,44	112,64
889,611	79,87
889,782	88,06
889,953	98,3
890,125	92,16
890,296	20,48
890,467	118,78
890,638	-0
890,809	43,01
890,98	114,69
891,151	34,82
891,323	63,49
891,494	102,4
891,665	88,06
891,836	61,44
892,007	77,82
892,178	30,72
892,349	61,44
892,52	10,24
892,691	61,44
892,862	63,49
893,032	67,58
893,203	43,01
893,374	45,06
893,545	57,34
893,716	90,11
893,887	88,06
894,057	2,05
894,228	43,01
894,399	32,77
894,57	36,86
894,74	108,54
894,911	43,01
895,082	90,11
895,253	65,53
895,423	-51,2
895,594	63,49
895,764	57,34
895,935	47,1
896,106	59,39
896,276	-4,1
896,447	-18,43
896,617	6,14
896,788	26,62
896,958	-0
897,129	-18,43
897,299	86,01
897,47	47,1
897,64	-12,29
897,81	-38,91
897,981	43,01
898,151	-69,63
898,322	34,82
898,492	-14,34
898,662	24,58
898,832	20,48
899,003	2,05
899,173	-2,05
899,343	47,1
899,513	-14,34
