Data from sun_USB4F104151__8__16-40-13-874.txt Node

Date: Thu Mar 07 16:40:13 EST 2024
User: lauri
Spectrometer: USB4F10415
Trigger mode: 4
Integration Time (sec): 2,000000E-3
Scans to average: 1
Electric dark correction enabled: true
Nonlinearity correction enabled: false
Boxcar width: 0
XAxis mode: Wavelengths
Number of Pixels in Spectrum: 3648
>>>>>Begin Spectral Data<<<<<
178,204	16,38
178,424	16,38
178,644	16,38
178,864	-47,1
179,084	-4,1
179,304	63,49
179,524	-43,01
179,744	-12,29
179,964	-24,58
180,184	-6,14
180,404	-20,48
180,624	59,39
180,844	12,29
181,064	47,1
181,283	-6,14
181,503	-40,96
181,723	-28,67
181,943	-51,2
182,163	-18,43
182,383	-77,82
182,602	6,14
182,822	6,14
183,042	-28,67
183,262	-45,06
183,482	32,77
183,701	-67,58
183,921	-28,67
184,141	-8,19
184,361	-22,53
184,58	-12,29
184,8	24,58
185,02	-59,39
185,239	-22,53
185,459	10,24
185,679	-16,38
185,898	-49,15
186,118	-47,1
186,338	-20,48
186,557	22,53
186,777	-10,24
186,997	36,86
187,216	45,06
187,436	-30,72
187,655	32,77
187,875	-16,38
188,095	-16,38
188,314	-43,01
188,534	-71,68
188,753	-71,68
188,973	-18,43
189,192	-4,1
189,412	55,3
189,631	-55,3
189,851	-45,06
190,07	55,3
190,29	-18,43
190,509	-38,91
190,729	2,05
190,948	-18,43
191,168	-8,19
191,387	4,1
191,607	-18,43
191,826	47,1
192,045	8,19
192,265	4,1
192,484	83,97
192,704	0
192,923	-8,19
193,142	6,14
193,362	-8,19
193,581	38,91
193,8	-6,14
194,02	-10,24
194,239	-45,06
194,458	-12,29
194,678	32,77
194,897	-51,2
195,116	-20,48
195,335	32,77
195,555	-34,82
195,774	38,91
195,993	-129,02
196,212	10,24
196,432	-2,05
196,651	0
196,87	24,58
197,089	65,54
197,308	-6,14
197,528	34,82
197,747	2,05
197,966	-38,91
198,185	-2,05
198,404	-24,58
198,623	14,34
198,842	-4,1
199,062	28,67
199,281	-2,05
199,5	-4,1
199,719	6,14
199,938	14,34
200,157	-79,87
200,376	-20,48
200,595	0
200,814	-12,29
201,033	22,53
201,252	-2,05
201,471	12,29
201,69	34,82
201,909	-10,24
202,128	-65,53
202,347	28,67
202,566	67,58
202,785	-6,14
203,004	-6,14
203,223	-77,82
203,442	4,1
203,661	-53,25
203,879	-28,67
204,098	51,2
204,317	36,86
204,536	16,38
204,755	-28,67
204,974	-8,19
205,193	43,01
205,411	-26,62
205,63	-4,1
205,849	-18,43
206,068	43,01
206,287	-10,24
206,505	-34,82
206,724	-36,86
206,943	45,06
207,162	-92,16
207,381	-38,91
207,599	14,34
207,818	12,29
208,037	-20,48
208,255	-18,43
208,474	65,54
208,693	-8,19
208,911	61,44
209,13	-106,49
209,349	-43,01
209,567	-26,62
209,786	47,1
210,005	-32,77
210,223	-61,44
210,442	-47,1
210,661	18,43
210,879	2,05
211,098	-45,06
211,316	-47,1
211,535	-59,39
211,753	36,86
211,972	8,19
212,191	45,06
212,409	-43,01
212,628	38,91
212,846	-98,3
213,065	-47,1
213,283	-20,48
213,502	26,62
213,72	-34,82
213,938	34,82
214,157	-110,59
214,375	-81,92
214,594	34,82
214,812	-26,62
215,031	-8,19
215,249	32,77
215,467	43,01
215,686	-108,54
215,904	20,48
216,122	-18,43
216,341	10,24
216,559	-36,86
216,778	-38,91
216,996	-16,38
217,214	-49,15
217,432	-2,05
217,651	65,54
217,869	26,62
218,087	30,72
218,306	-36,86
218,524	-4,1
218,742	-12,29
218,96	-57,34
219,179	-2,05
219,397	8,19
219,615	-61,44
219,833	-43,01
220,051	-16,38
220,27	14,34
220,488	26,62
220,706	-47,1
220,924	-32,77
221,142	-53,25
221,36	-32,77
221,578	16,38
221,796	-55,3
222,015	-10,24
222,233	4,1
222,451	-92,16
222,669	-18,43
222,887	-55,3
223,105	22,53
223,323	-83,97
223,541	24,58
223,759	-4,1
223,977	-104,45
224,195	-10,24
224,413	6,14
224,631	12,29
224,849	-10,24
225,067	6,14
225,285	14,34
225,503	-47,1
225,721	-2,05
225,939	-2,05
226,157	-18,43
226,375	71,68
226,592	-43,01
226,81	26,62
227,028	26,62
227,246	6,14
227,464	30,72
227,682	-45,06
227,9	4,1
228,117	43,01
228,335	2,05
228,553	-12,29
228,771	0
228,989	8,19
229,206	-45,06
229,424	6,14
229,642	88,06
229,86	-16,38
230,077	38,91
230,295	-24,58
230,513	32,77
230,731	-14,34
230,948	-4,1
231,166	30,72
231,384	-126,97
231,601	8,19
231,819	-14,34
232,037	8,19
232,254	-18,43
232,472	-16,38
232,689	-53,25
232,907	22,53
233,125	-59,39
233,342	-10,24
233,56	28,67
233,777	6,14
233,995	0
234,213	22,53
234,43	-22,53
234,648	36,86
234,865	-43,01
235,083	36,86
235,3	-10,24
235,518	-14,34
235,735	-28,67
235,953	22,53
236,17	-16,38
236,388	-20,48
236,605	-30,72
236,822	-57,34
237,04	36,86
237,257	4,1
237,475	-22,53
237,692	34,82
237,909	28,67
238,127	-10,24
238,344	61,44
238,562	16,38
238,779	-59,39
238,996	22,53
239,214	8,19
239,431	38,91
239,648	-34,82
239,865	-38,91
240,083	-2,05
240,3	4,1
240,517	-69,63
240,735	43,01
240,952	20,48
241,169	-6,14
241,386	22,53
241,603	-28,67
241,821	14,34
242,038	-20,48
242,255	45,06
242,472	-28,67
242,689	-26,62
242,907	-10,24
243,124	-2,05
243,341	55,3
243,558	-57,34
243,775	22,53
243,992	-59,39
244,209	28,67
244,426	12,29
244,643	36,86
244,86	6,14
245,078	-16,38
245,295	20,48
245,512	63,49
245,729	-22,53
245,946	-43,01
246,163	63,49
246,38	-16,38
246,597	30,72
246,814	34,82
247,031	8,19
247,248	-55,3
247,464	-16,38
247,681	2,05
247,898	-40,96
248,115	-22,53
248,332	-38,91
248,549	-2,05
248,766	8,19
248,983	6,14
249,2	14,34
249,417	-34,82
249,633	18,43
249,85	-43,01
250,067	-43,01
250,284	-43,01
250,501	49,15
250,717	34,82
250,934	-43,01
251,151	-40,96
251,368	-10,24
251,585	14,34
251,801	-88,06
252,018	47,1
252,235	-53,25
252,451	10,24
252,668	-6,14
252,885	49,15
253,102	-57,34
253,318	6,14
253,535	-28,67
253,752	-40,96
253,968	40,96
254,185	16,38
254,401	8,19
254,618	26,62
254,835	-86,01
255,051	-14,34
255,268	-12,29
255,484	-51,2
255,701	-40,96
255,917	-4,1
256,134	-14,34
256,351	-36,86
256,567	67,58
256,784	-2,05
257	12,29
257,217	24,58
257,433	-43,01
257,65	-77,82
257,866	-30,72
258,082	-51,2
258,299	43,01
258,515	6,14
258,732	-8,19
258,948	53,25
259,165	-55,3
259,381	-16,38
259,597	-67,58
259,814	18,43
260,03	65,54
260,246	-18,43
260,463	-22,53
260,679	4,1
260,895	-24,58
261,112	-14,34
261,328	16,38
261,544	-14,34
261,761	-61,44
261,977	0
262,193	-26,62
262,409	73,73
262,626	-71,68
262,842	38,91
263,058	-49,15
263,274	10,24
263,49	-32,77
263,707	16,38
263,923	-14,34
264,139	-30,72
264,355	2,05
264,571	-4,1
264,787	-55,3
265,004	32,77
265,22	32,77
265,436	-40,96
265,652	-36,86
265,868	55,3
266,084	-73,73
266,3	40,96
266,516	6,14
266,732	-34,82
266,948	-4,1
267,164	-47,1
267,38	-77,82
267,596	-34,82
267,812	-38,91
268,028	6,14
268,244	-57,34
268,46	2,05
268,676	-61,44
268,892	47,1
269,108	-30,72
269,324	-61,44
269,54	-28,67
269,756	-18,43
269,972	-26,62
270,188	8,19
270,403	2,05
270,619	-30,72
270,835	22,53
271,051	12,29
271,267	-2,05
271,483	38,91
271,698	-38,91
271,914	8,19
272,13	-53,25
272,346	-43,01
272,562	-22,53
272,777	47,1
272,993	-28,67
273,209	-45,06
273,425	-26,62
273,64	12,29
273,856	-57,34
274,072	-26,62
274,287	-14,34
274,503	12,29
274,719	69,63
274,934	-24,58
275,15	-24,58
275,366	-2,05
275,581	-40,96
275,797	90,11
276,012	-22,53
276,228	26,62
276,444	12,29
276,659	-36,86
276,875	18,43
277,09	24,58
277,306	-16,38
277,521	-28,67
277,737	-30,72
277,952	63,49
278,168	-108,54
278,383	-47,1
278,599	-26,62
278,814	-24,58
279,03	-47,1
279,245	-49,15
279,461	-20,48
279,676	36,86
279,892	-24,58
280,107	36,86
280,322	-18,43
280,538	20,48
280,753	-30,72
280,969	-6,14
281,184	-10,24
281,399	-2,05
281,615	26,62
281,83	14,34
282,045	-8,19
282,26	-63,49
282,476	-59,39
282,691	55,3
282,906	-28,67
283,122	51,2
283,337	43,01
283,552	14,34
283,767	-36,86
283,983	12,29
284,198	-36,86
284,413	-4,1
284,628	2,05
284,843	-2,05
285,058	-59,39
285,274	-8,19
285,489	-24,58
285,704	8,19
285,919	-4,1
286,134	16,38
286,349	22,53
286,564	-28,67
286,779	-16,38
286,995	38,91
287,21	-24,58
287,425	12,29
287,64	-83,97
287,855	51,2
288,07	-34,82
288,285	-43,01
288,5	34,82
288,715	-4,1
288,93	57,34
289,145	-63,49
289,36	-4,1
289,575	10,24
289,79	-10,24
290,004	-36,86
290,219	12,29
290,434	65,54
290,649	-10,24
290,864	-4,1
291,079	-16,38
291,294	-22,53
291,509	-2,05
291,724	-61,44
291,938	-94,21
292,153	24,58
292,368	-75,77
292,583	49,15
292,798	38,91
293,012	-65,53
293,227	-10,24
293,442	8,19
293,657	-20,48
293,871	20,48
294,086	-61,44
294,301	6,14
294,516	-43,01
294,73	40,96
294,945	0
295,16	-38,91
295,374	-16,38
295,589	-6,14
295,804	8,19
296,018	30,72
296,233	-22,53
296,447	-22,53
296,662	-2,05
296,877	-22,53
297,091	20,48
297,306	-32,77
297,52	-75,77
297,735	0
297,949	16,38
298,164	-32,77
298,378	-20,48
298,593	-2,05
298,807	-47,1
299,022	-10,24
299,236	-38,91
299,451	47,1
299,665	2,05
299,88	10,24
300,094	-36,86
300,309	0
300,523	-18,43
300,737	-10,24
300,952	51,2
301,166	-20,48
301,381	-28,67
301,595	-12,29
301,809	-90,11
302,024	34,82
302,238	16,38
302,452	28,67
302,667	69,63
302,881	14,34
303,095	-65,53
303,309	14,34
303,524	-40,96
303,738	22,53
303,952	6,14
304,166	30,72
304,381	-28,67
304,595	-59,39
304,809	-28,67
305,023	-83,97
305,237	28,67
305,452	-47,1
305,666	-59,39
305,88	16,38
306,094	-16,38
306,308	4,1
306,522	-61,44
306,736	-10,24
306,95	-65,53
307,164	-2,05
307,379	-12,29
307,593	-24,58
307,807	8,19
308,021	22,53
308,235	-45,06
308,449	-18,43
308,663	-18,43
308,877	26,62
309,091	-32,77
309,305	-49,15
309,519	-8,19
309,733	6,14
309,947	34,82
310,161	61,44
310,374	-24,58
310,588	-28,67
310,802	-12,29
311,016	-4,1
311,23	-2,05
311,444	14,34
311,658	43,01
311,872	-2,05
312,085	-59,39
312,299	-34,82
312,513	-10,24
312,727	-18,43
312,941	-40,96
313,154	-75,77
313,368	6,14
313,582	-28,67
313,796	14,34
314,009	30,72
314,223	-30,72
314,437	-26,62
314,651	10,24
314,864	-6,14
315,078	-77,82
315,292	-49,15
315,505	-20,48
315,719	-20,48
315,933	-24,58
316,146	-2,05
316,36	20,48
316,573	16,38
316,787	10,24
317,001	61,44
317,214	38,91
317,428	6,14
317,641	-18,43
317,855	4,1
318,068	-38,91
318,282	-104,45
318,495	-94,21
318,709	14,34
318,922	2,05
319,136	49,15
319,349	-116,73
319,563	-59,39
319,776	2,05
319,99	-36,86
320,203	-28,67
320,417	-43,01
320,63	98,3
320,843	8,19
321,057	-36,86
321,27	-124,93
321,483	2,05
321,697	-12,29
321,91	14,34
322,124	-61,44
322,337	12,29
322,55	18,43
322,763	-61,44
322,977	65,54
323,19	-47,1
323,403	-57,34
323,617	-8,19
323,83	8,19
324,043	-45,06
324,256	-8,19
324,469	-16,38
324,683	2,05
324,896	-28,67
325,109	24,58
325,322	8,19
325,535	18,43
325,748	14,34
325,962	-86,01
326,175	-10,24
326,388	12,29
326,601	38,91
326,814	-61,44
327,027	0
327,24	32,77
327,453	2,05
327,666	2,05
327,879	20,48
328,092	16,38
328,305	-55,3
328,518	-28,67
328,731	61,44
328,944	-49,15
329,157	-28,67
329,37	45,06
329,583	-34,82
329,796	-38,91
330,009	47,1
330,222	-71,68
330,435	12,29
330,648	57,34
330,861	10,24
331,073	22,53
331,286	-59,39
331,499	-10,24
331,712	12,29
331,925	6,14
332,138	-6,14
332,35	-34,82
332,563	-38,91
332,776	-4,1
332,989	-10,24
333,202	43,01
333,414	-10,24
333,627	-30,72
333,84	12,29
334,053	-53,25
334,265	-6,14
334,478	-83,97
334,691	-20,48
334,903	6,14
335,116	-18,43
335,329	12,29
335,541	-6,14
335,754	36,86
335,966	-20,48
336,179	12,29
336,392	45,06
336,604	-38,91
336,817	-75,77
337,029	4,1
337,242	30,72
337,454	-38,91
337,667	30,72
337,88	-57,34
338,092	69,63
338,305	-30,72
338,517	4,1
338,729	-36,86
338,942	-12,29
339,154	-20,48
339,367	67,58
339,579	45,06
339,792	-16,38
340,004	-32,77
340,217	20,48
340,429	-4,1
340,641	-45,06
340,854	-28,67
341,066	2,05
341,278	-6,14
341,491	-28,67
341,703	-38,91
341,915	47,1
342,128	14,34
342,34	-24,58
342,552	55,3
342,764	-51,2
342,977	77,82
343,189	30,72
343,401	98,3
343,613	20,48
343,826	28,67
344,038	-40,96
344,25	8,19
344,462	-22,53
344,674	-36,86
344,886	10,24
345,099	6,14
345,311	-16,38
345,523	-79,87
345,735	51,2
345,947	8,19
346,159	-83,97
346,371	-43,01
346,583	36,86
346,795	10,24
347,007	-10,24
347,219	63,49
347,431	-51,2
347,643	36,86
347,855	47,1
348,067	28,67
348,279	4,1
348,491	43,01
348,703	-61,44
348,915	38,91
349,127	-65,53
349,339	-6,14
349,551	-65,53
349,763	18,43
349,975	-20,48
350,187	34,82
350,399	10,24
350,61	-59,39
350,822	4,1
351,034	-34,82
351,246	6,14
351,458	-14,34
351,669	73,73
351,881	-20,48
352,093	43,01
352,305	-32,77
352,517	-12,29
352,728	4,1
352,94	73,73
353,152	-32,77
353,363	-26,62
353,575	32,77
353,787	10,24
353,999	4,1
354,21	2,05
354,422	45,06
354,633	16,38
354,845	28,67
355,057	-14,34
355,268	-32,77
355,48	-34,82
355,692	20,48
355,903	-32,77
356,115	-40,96
356,326	18,43
356,538	-30,72
356,749	6,14
356,961	-10,24
357,172	-24,58
357,384	22,53
357,595	63,49
357,807	14,34
358,018	0
358,23	-34,82
358,441	34,82
358,653	-18,43
358,864	-2,05
359,075	-20,48
359,287	20,48
359,498	75,77
359,709	20,48
359,921	-20,48
360,132	0
360,344	16,38
360,555	-4,1
360,766	47,1
360,977	28,67
361,189	-55,3
361,4	45,06
361,611	18,43
361,823	-63,49
362,034	36,86
362,245	-59,39
362,456	53,25
362,667	-26,62
362,879	4,1
363,09	6,14
363,301	-18,43
363,512	22,53
363,723	28,67
363,935	-16,38
364,146	-10,24
364,357	-20,48
364,568	38,91
364,779	-18,43
364,99	32,77
365,201	16,38
365,412	34,82
365,623	49,15
365,834	38,91
366,045	45,06
366,256	79,87
366,467	-14,34
366,678	-12,29
366,889	0
367,1	67,58
367,311	51,2
367,522	67,58
367,733	75,77
367,944	67,58
368,155	-45,06
368,366	22,53
368,577	34,82
368,788	-28,67
368,999	28,67
369,209	28,67
369,42	16,38
369,631	12,29
369,842	30,72
370,053	36,86
370,264	-10,24
370,474	104,45
370,685	-34,82
370,896	-6,14
371,107	34,82
371,317	34,82
371,528	-38,91
371,739	-10,24
371,95	36,86
372,16	59,39
372,371	30,72
372,582	45,06
372,792	55,3
373,003	-4,1
373,214	-8,19
373,424	-12,29
373,635	81,92
373,846	34,82
374,056	71,68
374,267	77,82
374,477	43,01
374,688	12,29
374,898	77,82
375,109	77,82
375,319	86,01
375,53	49,15
375,74	122,88
375,951	43,01
376,161	69,63
376,372	14,34
376,582	137,21
376,793	98,3
377,003	6,14
377,214	126,97
377,424	71,68
377,635	28,67
377,845	53,25
378,055	49,15
378,266	102,4
378,476	49,15
378,686	32,77
378,897	34,82
379,107	126,97
379,317	0
379,528	96,25
379,738	157,69
379,948	102,4
380,158	61,44
380,369	57,34
380,579	92,16
380,789	-51,2
380,999	-20,48
381,21	4,1
381,42	59,39
381,63	26,62
381,84	30,72
382,05	96,25
382,261	32,77
382,471	40,96
382,681	38,91
382,891	53,25
383,101	69,63
383,311	40,96
383,521	92,16
383,731	118,78
383,941	120,83
384,151	-10,24
384,361	55,3
384,571	30,72
384,781	131,07
384,991	53,25
385,201	178,17
385,411	145,41
385,621	8,19
385,831	67,58
386,041	69,63
386,251	149,5
386,461	88,06
386,671	24,58
386,881	108,54
387,091	159,74
387,301	202,75
387,511	258,04
387,72	79,87
387,93	114,69
388,14	223,23
388,35	192,51
388,56	151,55
388,769	249,85
388,979	215,04
389,189	243,71
389,399	264,19
389,609	176,13
389,818	251,9
390,028	235,52
390,238	217,08
390,447	153,6
390,657	145,41
390,867	126,97
391,076	55,3
391,286	26,62
391,496	102,4
391,705	159,74
391,915	43,01
392,125	145,41
392,334	47,1
392,544	135,17
392,753	124,93
392,963	200,7
393,172	178,17
393,382	153,6
393,591	292,86
393,801	231,42
394,01	202,75
394,22	176,13
394,429	237,56
394,639	192,51
394,848	106,49
395,058	141,31
395,267	184,32
395,477	249,85
395,686	202,75
395,895	268,28
396,105	247,8
396,314	432,12
396,524	382,97
396,733	534,52
396,942	610,29
397,152	788,47
397,361	636,92
397,57	845,81
397,78	796,66
397,989	974,83
398,198	1097,71
398,407	1218,54
398,617	1101,81
398,826	1382,38
399,035	1206,25
399,244	1325,04
399,453	1241,07
399,663	1449,96
399,872	1572,84
400,081	1763,3
400,29	1517,54
400,499	1562,6
400,708	1443,82
400,917	1746,92
401,127	1533,93
401,336	1701,86
401,545	1497,07
401,754	1791,97
401,963	1738,73
402,172	1656,81
402,381	1505,26
402,59	1920,99
402,799	1634,28
403,008	1818,6
403,217	1558,5
403,426	1814,5
403,635	1587,18
403,844	1660,9
404,053	1669,09
404,262	1646,57
404,471	1521,64
404,68	1728,49
404,888	1603,56
405,097	1693,67
405,306	1802,21
405,515	1843,17
405,724	1763,3
405,933	2101,22
406,142	1695,72
406,35	1871,84
406,559	2242,53
406,768	2332,64
406,977	2033,63
407,185	2389,98
407,394	2166,75
407,603	2199,52
407,812	2125,79
408,02	2117,6
408,229	2103,26
408,438	2195,42
408,646	2144,22
408,855	2070,5
409,064	2123,74
409,272	2408,41
409,481	2531,29
409,69	2641,88
409,898	2334,68
410,107	2777,05
410,315	2523,1
410,524	2924,5
410,733	2748,37
410,941	2979,79
411,15	2797,53
411,358	3022,8
411,567	2762,71
411,775	2928,6
411,984	2836,44
412,192	3248,08
412,401	2961,36
412,609	3117,01
412,818	3098,58
413,026	3084,24
413,234	2983,89
413,443	3192,78
413,651	2998,23
413,86	3221,45
414,068	3295,18
414,276	3354,57
414,485	3090,38
414,693	3250,13
414,901	3090,38
415,11	3573,71
415,318	3127,25
415,526	3454,92
415,734	3067,86
415,943	3323,85
416,151	3209,17
416,359	3278,8
416,567	3045,33
416,776	3233,74
416,984	3067,86
417,192	3475,4
417,4	3188,69
417,608	3180,5
417,817	3020,75
418,025	3190,74
418,233	3295,18
418,441	3278,8
418,649	3174,35
418,857	3827,65
419,065	3383,24
419,273	3330
419,481	3377,1
419,689	3891,14
419,897	3676,1
420,105	3753,93
420,313	3393,48
420,521	3567,56
420,729	3364,81
420,937	3506,12
421,145	3225,55
421,353	3538,89
421,561	3280,85
421,769	3559,37
421,977	3626,95
422,185	3637,19
422,393	3608,52
422,601	4003,78
422,809	3747,78
423,017	3829,7
423,224	3569,61
423,432	3827,65
423,64	3598,28
423,848	4054,98
424,056	3712,97
424,263	3979,2
424,471	3731,4
424,679	3856,33
424,887	3821,51
425,094	4050,88
425,302	3446,73
425,51	3958,72
425,718	3524,55
425,925	3784,65
426,133	3737,54
426,341	3870,66
426,548	3968,96
426,756	3975,11
426,964	3794,89
427,171	3952,58
427,379	3858,37
427,586	3786,69
427,794	3653,58
428,001	3696,58
428,209	3481,55
428,417	3147,73
428,624	3360,72
428,832	3123,15
429,039	2719,7
429,247	3041,23
429,454	3303,37
429,662	4007,87
429,869	3330
430,076	4040,64
430,284	3629
430,491	4204,48
430,699	4519,87
430,906	4511,68
431,114	4290,49
431,321	4548,54
431,528	4394,94
431,736	5062,58
431,943	5025,72
432,15	4747,19
432,358	4630,46
432,565	5035,96
432,772	4894,65
432,979	5306,29
433,187	4921,27
433,394	5103,54
433,601	5644,2
433,808	5789,61
434,016	5461,93
434,223	6037,41
434,43	6127,52
434,637	6008,74
434,844	6297,5
435,052	6657,95
435,259	6090,66
435,466	6438,81
435,673	5961,64
435,88	6516,64
436,087	6473,63
436,294	6436,77
436,501	5855,14
436,708	5789,61
436,915	5785,51
437,122	6156,19
437,329	5797,8
437,537	6408,09
437,743	6162,34
437,95	6223,78
438,157	6406,05
438,364	6821,78
438,571	6197,15
438,778	6535,07
438,985	6938,52
439,192	6829,98
439,399	6915,99
439,606	6653,85
439,813	6997,91
440,02	7550,86
440,227	7278,48
440,433	7303,06
440,64	7452,56
440,847	7364,5
441,054	7352,21
441,261	7896,97
441,467	7278,48
441,674	7630,73
441,881	7679,88
442,088	7905,16
442,294	7520,14
442,501	7890,82
442,708	7657,36
442,914	8146,82
443,121	8007,56
443,328	7909,26
443,534	8263,55
443,741	7901,06
443,948	7280,53
444,154	8120,2
444,361	7454,61
444,568	7597,96
444,774	7321,49
444,981	7690,12
445,187	7706,51
445,394	8173,44
445,6	7823,24
445,807	8957,82
446,013	8122,24
446,22	8466,3
446,426	8728,44
446,633	8740,73
446,839	8818,55
447,046	8269,7
447,252	8753,02
447,459	8937,34
447,665	8368
447,871	9107,32
448,078	9164,66
448,284	8767,35
448,491	9160,56
448,697	9498,48
448,903	9615,21
449,11	9727,85
449,316	9353,07
449,522	9602,93
449,728	9639,79
449,935	9645,93
450,141	9482,1
450,347	9965,42
450,553	8933,24
450,76	9283,44
450,966	9076,6
451,172	9285,49
451,378	9090,93
451,584	9310,07
451,791	8859,51
451,997	9156,47
452,203	9541,49
452,409	9441,14
452,615	9570,16
452,821	9445,23
453,027	8935,29
453,233	9846,63
453,44	9160,56
453,646	9910,12
453,852	9711,47
454,058	9969,51
454,264	9801,58
454,47	10305,38
454,676	9961,32
454,882	10782,56
455,088	9686,89
455,294	10291,04
455,5	10483,55
455,705	10737,5
455,911	10506,08
456,117	10254,18
456,323	10518,37
456,529	10149,73
456,735	10776,41
456,941	10637,15
457,147	10637,15
457,352	10579,81
457,558	10254,18
457,764	10827,61
457,97	10645,34
458,176	10870,62
458,381	11013,98
458,587	10790,75
458,793	10774,36
458,999	10837,85
459,204	11904,84
459,41	12177,22
459,616	11493,2
459,821	11724,62
460,027	12044,1
460,233	12494,66
460,438	11771,72
460,644	12312,39
460,85	11997
461,055	12351,3
461,261	12216,13
461,466	11962,19
461,672	11663,18
461,878	12896,06
462,083	12121,93
462,289	12068,68
462,494	12119,88
462,7	11818,83
462,905	11568,98
463,111	12779,32
463,316	12801,85
463,522	12822,33
463,727	12988,22
463,932	13375,28
464,138	13414,2
464,343	13664,05
464,549	13266,74
464,754	13961
464,959	14081,83
465,165	14169,9
465,37	13684,53
465,575	13768,49
465,781	14368,55
465,986	14260,01
466,191	13999,91
466,397	14298,92
466,602	14042,92
466,807	14651,17
467,012	14288,68
467,218	14948,12
467,423	14892,83
467,628	15677,2
467,833	16189,19
468,038	15863,57
468,244	15232,79
468,449	16131,85
468,654	16004,88
468,859	15892,24
469,064	15693,58
469,269	15626
469,474	16068,36
469,679	16684,8
469,885	16285,45
470,09	17221,37
470,295	17366,77
470,5	17272,57
470,705	17501,94
470,91	17630,96
471,115	17532,66
471,32	18546,4
471,525	18181,87
471,73	18337,51
471,935	18446,05
472,139	18441,96
472,344	18317,03
472,549	18736,87
472,754	18859,74
472,959	19017,44
473,164	18589,41
473,369	18869,98
473,574	19652,31
473,778	19922,64
473,983	19668,69
474,188	20471,5
474,393	19461,85
474,598	20156,11
474,802	19420,89
475,007	19898,06
475,212	20027,09
475,417	20080,33
475,621	20369,1
475,826	20813,51
476,031	21214,91
476,235	21110,46
476,44	21737,14
476,645	21464,76
476,849	22286
477,054	22568,62
477,259	22453,93
477,463	23019,17
477,668	22611,62
477,872	23357,08
478,077	23320,22
478,282	23494,3
478,486	23379,61
478,691	23684,76
478,895	24362,64
479,1	24592,01
479,304	24612,49
479,509	24467,08
479,713	24944,26
479,918	25071,23
480,122	25153,15
480,326	25615,99
480,531	25800,31
480,735	26125,94
480,94	26185,33
481,144	27137,63
481,348	25921,14
481,553	26551,91
481,757	26195,57
481,961	26895,97
482,166	26967,65
482,37	27137,63
482,574	26615,4
482,778	27426,4
482,983	27620,95
483,187	27135,59
483,391	27518,56
483,595	26646,12
483,8	26093,17
484,004	26490,48
484,208	26017,4
484,412	25423,48
484,616	24997,51
484,821	25378,43
485,025	24706,69
485,229	25065,09
485,433	24870,53
485,637	25429,63
485,841	25583,23
486,045	25769,59
486,249	26326,64
486,453	26867,3
486,657	27065,95
486,861	27520,6
487,065	27078,24
487,269	27727,45
487,473	27332,19
487,677	28221,01
487,881	28905,03
488,085	28984,9
488,289	29634,11
488,493	29732,41
488,697	29922,87
488,901	30258,74
489,105	29963,83
489,309	30494,25
489,512	30469,68
489,716	30742,06
489,92	30455,34
490,124	30209,59
490,328	30633,52
490,531	30129,72
490,735	29675,07
490,939	30293,55
491,143	30301,75
491,346	30441,01
491,55	31239,72
491,754	31153,7
491,958	31393,31
492,161	31348,26
492,365	31409,7
492,569	31686,17
492,772	31086,12
492,976	31958,55
493,18	32372,24
493,383	32593,42
493,587	32386,58
493,79	32757,26
493,994	32345,62
494,197	33119,75
494,401	32546,32
494,605	32601,61
494,808	33013,26
495,012	33017,35
495,215	33138,18
495,419	33373,7
495,622	32917
495,825	33562,11
496,029	33150,47
496,232	33570,3
496,436	32843,27
496,639	33504,77
496,843	32165,4
497,046	33435,14
497,249	32878,09
497,453	32931,34
497,656	32830,99
497,859	32620,05
498,063	32802,32
498,266	33617,41
498,469	32566,8
498,673	32607,76
498,876	32800,27
499,079	32833,04
499,282	31880,73
499,485	32187,92
499,689	32103,96
499,892	31837,72
500,095	31598,11
500,298	32462,35
500,501	31374,88
500,705	31940,12
500,908	31825,43
501,111	31813,15
501,314	32239,12
501,517	32013,85
501,72	32566,8
501,923	31897,11
502,126	32417,3
502,329	32509,46
502,532	31594,01
502,735	31903,26
502,938	32296,47
503,141	32441,87
503,344	32618
503,547	32177,69
503,75	32818,7
503,953	33324,55
504,156	33713,66
504,359	33580,54
504,562	33617,41
504,765	34149,88
504,968	33967,61
505,17	33799,68
505,373	33138,18
505,576	33940,99
505,779	34067,96
505,982	33568,26
506,185	33998,33
506,387	33691,13
506,59	33340,93
506,793	33940,99
506,996	33332,74
507,198	34389,49
507,401	33517,06
507,604	34063,86
507,807	34416,11
508,009	34461,17
508,212	34057,72
508,415	34696,69
508,617	34846,19
508,82	34645,49
509,022	34047,48
509,225	34950,63
509,428	34649,58
509,63	34954,73
509,833	34651,63
510,035	35522,02
510,238	35270,12
510,44	36097,5
510,643	35839,45
510,845	36017,63
511,048	35319,27
511,25	35323,37
511,453	34993,64
511,655	35751,39
511,858	35104,23
512,06	34932,2
512,262	35106,28
512,465	34635,25
512,667	34600,43
512,87	35139,05
513,072	34803,18
513,274	35016,17
513,477	35202,53
513,679	35225,06
513,881	35208,68
514,084	35976,67
514,286	35431,91
514,488	35397,09
514,69	35847,65
514,893	35401,19
515,095	34334,2
515,297	33912,31
515,499	33037,83
515,701	33017,35
515,904	32306,71
516,106	32474,64
516,308	32667,15
516,51	33107,46
516,712	32890,38
516,914	32867,85
517,116	33218,05
517,318	33318,4
517,52	33089,03
517,722	33576,45
517,925	33764,86
518,127	35030,51
518,329	35227,11
518,531	35048,94
518,733	35593,7
518,935	35849,69
519,136	35995,1
519,338	36728,27
519,54	36298,2
519,742	36462,04
519,944	36496,85
520,146	37076,43
520,348	37594,56
520,55	37608,9
520,752	37778,88
520,954	38043,07
521,155	37363,14
521,357	37834,17
521,559	37526,98
521,761	38077,88
521,963	37502,4
522,164	37385,67
522,366	37539,27
522,568	38940,08
522,77	39304,62
522,971	39736,74
523,173	39009,71
523,375	39626,15
523,576	39347,62
523,778	39564,71
523,98	39681,44
524,181	39394,73
524,383	38759,86
524,584	38882,73
524,786	37995,96
524,988	37588,42
525,189	37094,86
525,391	37135,82
525,592	36283,86
525,794	36197,85
525,995	35851,74
526,197	36142,55
526,398	35984,86
526,6	36689,36
526,801	36920,78
527,003	37387,72
527,204	37258,7
527,406	38407,61
527,607	38112,7
527,808	38514,1
528,01	38133,18
528,211	38682,03
528,412	39284,14
528,614	39087,53
528,815	37748,16
529,016	38133,18
529,218	38325,69
529,419	38899,12
529,62	38768,05
529,822	39153,07
530,023	38833,58
530,224	38675,89
530,425	37979,58
530,626	38096,31
530,828	37877,18
531,029	37715,39
531,23	36720,08
531,431	36797,9
531,632	36611,54
531,833	36697,55
532,035	36343,25
532,236	36644,3
532,437	36928,97
532,638	37047,75
532,839	36484,56
533,04	36781,52
533,241	36535,76
533,442	37326,28
533,643	37088,71
533,844	37137,87
534,045	37756,35
534,246	37240,26
534,447	37416,39
534,648	37612,99
534,849	37287,37
535,05	37141,96
535,251	37107,15
535,451	36502,99
535,652	37174,73
535,853	36675,02
536,054	36644,3
536,255	36685,26
536,456	35911,13
536,657	36748,75
536,857	36437,46
537,058	36371,93
537,259	36877,77
537,46	36816,33
537,66	36677,07
537,861	36355,54
538,062	36263,38
538,263	36101,59
538,463	35436
538,664	35192,29
538,865	35040,75
539,065	35352,04
539,266	34913,77
539,466	35208,68
539,667	34495,99
539,868	35016,17
540,068	34899,44
540,269	35040,75
540,469	35098,09
540,67	34866,67
540,87	34721,26
541,071	34901,48
541,271	35419,62
541,472	34850,28
541,672	34715,12
541,873	34979,31
542,073	34520,56
542,274	35114,47
542,474	34924,01
542,675	34696,69
542,875	35542,5
543,075	35026,41
543,276	34287,09
543,476	35532,26
543,676	34962,92
543,877	35380,71
544,077	34844,14
544,277	34850,28
544,478	35294,69
544,678	35143,14
544,878	34981,35
545,078	35237,35
545,279	34815,47
545,479	35360,23
545,679	34758,13
545,879	34883,05
546,079	34516,47
546,28	34647,54
546,48	33877,5
546,68	34229,75
546,88	33869,31
547,08	34309,62
547,28	34414,07
547,48	34121,21
547,68	34528,75
547,88	34362,87
548,081	34815,47
548,281	34702,83
548,481	34622,96
548,681	35100,14
548,881	34452,98
549,081	34606,58
549,28	34321,91
549,48	34747,89
549,68	34264,57
549,88	35016,17
550,08	34104,82
550,28	34278,9
550,48	34106,87
550,68	35272,17
550,88	34704,88
551,08	34649,58
551,279	34340,34
551,479	34510,32
551,679	34747,89
551,879	34840,04
552,079	34711,02
552,278	34446,83
552,478	34057,72
552,678	34504,18
552,878	34442,74
553,077	34375,16
553,277	33832,44
553,477	34762,22
553,676	34635,25
553,876	34665,97
554,076	34555,38
554,275	34635,25
554,475	34356,72
554,674	35022,31
554,874	34127,35
555,074	34434,55
555,273	34006,52
555,473	34678,25
555,672	33611,26
555,872	33785,34
556,071	33908,22
556,271	33594,88
556,47	33922,55
556,67	33566,21
556,869	33375,75
557,068	33328,64
557,268	32984,58
557,467	33150,47
557,667	32898,57
557,866	32681,49
558,065	32910,86
558,265	32448,02
558,464	31448,61
558,663	32822,8
558,863	32294,42
559,062	32880,14
559,261	32574,99
559,461	33707,52
559,66	32724,49
559,859	32974,34
560,058	32816,65
560,258	33236,48
560,457	32624,14
560,656	32888,33
560,855	32210,45
561,054	32661,01
561,253	32120,34
561,453	32472,59
561,652	32052,76
561,851	32572,94
562,05	32366,1
562,249	32910,86
562,448	32787,98
562,647	32362
562,846	31813,15
563,045	31804,95
563,244	32116,25
563,443	32077,33
563,642	31489,57
563,841	31888,92
564,04	31432,22
564,239	32243,22
564,438	31651,36
564,637	31653,4
564,836	31168,04
565,035	31125,03
565,234	31436,32
565,432	31260,19
565,631	31174,18
565,83	31622,69
566,029	31729,18
566,228	31565,34
566,427	31536,67
566,625	31057,45
566,824	30893,61
567,023	31252
567,222	30391,86
567,42	31012,39
567,619	30793,26
567,818	30670,38
568,016	30533,17
568,215	30946,86
568,414	30385,71
568,612	31073,83
568,811	30451,25
569,01	30600,75
569,208	30193,2
569,407	30316,08
569,605	29541,95
569,804	30045,75
570,002	29439,55
570,201	29750,84
570,4	28935,75
570,598	29101,64
570,797	29240,9
570,995	29566,52
571,193	29316,67
571,392	29820,47
571,59	29355,58
571,789	29335,1
571,987	29816,38
572,186	30010,93
572,384	29558,33
572,582	29388,35
572,781	29896,25
572,979	29926,97
573,177	29451,84
573,376	28974,66
573,574	28728,91
573,772	29019,72
573,971	28943,94
574,169	29023,81
574,367	28989
574,565	28575,31
574,763	28628,56
574,962	28669,51
575,16	28319,31
575,358	28829,26
575,556	28120,66
575,754	28993,09
575,952	28374,61
576,151	29081,16
576,349	28528,2
576,547	28771,91
576,745	28511,82
576,943	28431,95
577,141	28472,91
577,339	28489,29
577,537	28321,36
577,735	28417,61
577,933	28276,3
578,131	28962,37
578,329	28278,35
578,527	28221,01
578,725	28466,77
578,923	29068,87
579,121	28997,19
579,319	29292,1
579,516	29075,01
579,714	29376,06
579,912	29189,7
580,11	29503,04
580,308	29855,29
580,506	29883,96
580,704	30150,2
580,901	30557,74
581,099	30633,52
581,297	30463,54
581,495	30420,53
581,692	30955,05
581,89	30191,16
582,088	30529,07
582,285	30402,1
582,483	31237,67
582,681	31272,48
582,878	31098,41
583,076	31133,22
583,274	31600,16
583,471	30502,45
583,669	31335,97
583,866	30672,43
584,064	30903,85
584,262	30463,54
584,459	30756,39
584,657	30662,19
584,854	30840,36
585,052	30242,35
585,249	31002,15
585,447	30750,25
585,644	30895,66
585,841	30899,75
586,039	31415,84
586,236	30836,27
586,434	30625,32
586,631	31020,58
586,828	30993,96
587,026	30983,72
587,223	30719,53
587,42	29883,96
587,618	29255,23
587,815	28399,18
588,012	27932,25
588,21	27815,51
588,407	27948,63
588,604	26873,45
588,801	27479,64
588,999	27233,89
589,196	28178
589,393	28417,61
589,59	28497,49
589,787	28608,08
589,984	28657,23
590,182	27934,29
590,379	28485,2
590,576	28585,55
590,773	28200,53
590,97	28120,66
591,167	28671,56
591,364	28169,81
591,561	28857,93
591,758	27928,15
591,955	28384,85
592,152	28896,84
592,349	28802,63
592,546	28745,29
592,743	28958,28
592,94	28081,75
593,137	28657,23
593,334	28669,51
593,531	28327,5
593,727	28462,67
593,924	28683,85
594,121	28063,32
594,318	28438,09
594,515	28229,2
594,712	28925,51
594,908	28507,72
595,105	28466,77
595,302	27604,57
595,499	28122,71
595,696	28300,88
595,892	28413,52
596,089	28593,74
596,286	28208,72
596,482	28417,61
596,679	28464,72
596,876	28223,06
597,072	27989,59
597,269	28024,4
597,466	27792,98
597,662	28020,31
597,859	27723,35
598,055	27969,11
598,252	27893,33
598,448	27680,35
598,645	28149,33
598,841	27682,39
599,038	27876,95
599,234	27774,55
599,431	27592,28
599,627	27706,97
599,824	28401,23
600,02	27514,46
600,217	27536,99
600,413	27170,4
600,609	27237,98
600,806	27088,48
601,002	27197,02
601,198	27199,07
601,395	26936,93
601,591	26910,31
601,787	27623
601,984	27588,19
602,18	27403,87
602,376	27354,72
602,572	27692,63
602,769	27782,74
602,965	27539,04
603,161	27919,96
603,357	28159,57
603,553	27741,78
603,75	28231,25
603,946	28053,08
604,142	28081,75
604,338	27706,97
604,534	27635,29
604,73	27305,57
604,926	27563,61
605,122	27948,63
605,318	27795,03
605,514	27418,21
605,71	27858,52
605,906	28239,44
606,102	28024,4
606,298	27956,82
606,494	28184,15
606,69	28296,78
606,886	28685,9
607,082	27571,8
607,278	28460,62
607,474	28139,09
607,67	28577,36
607,866	27737,69
608,062	28175,95
608,257	28061,27
608,453	27899,48
608,649	27901,53
608,845	27928,15
609,041	27606,62
609,236	27782,74
609,432	27565,66
609,628	28094,04
609,824	27960,92
610,019	27924,05
610,215	27580
610,411	28548,68
610,606	28141,14
610,802	28997,19
610,998	28407,37
611,193	28610,12
611,389	28038,74
611,584	28544,59
611,78	28501,58
611,976	28851,78
612,171	29079,11
612,367	29146,69
612,562	28993,09
612,758	28794,44
612,953	28956,23
613,149	29185,6
613,344	28532,3
613,539	29408,83
613,735	29050,44
613,93	29611,58
614,126	28900,93
614,321	29984,31
614,517	29384,26
614,712	28866,12
614,907	28550,73
615,103	28937,8
615,298	29013,57
615,493	29187,65
615,688	28405,33
615,884	29224,51
616,079	28608,08
616,274	28968,52
616,47	29236,8
616,665	29576,76
616,86	29662,78
617,055	30160,44
617,25	30473,77
617,445	30395,95
617,641	30109,24
617,836	30467,63
618,031	30152,24
618,226	30402,1
618,421	30377,52
618,616	30703,15
618,811	30125,62
619,006	30989,86
619,201	29845,05
619,396	30666,28
619,591	30301,75
619,786	30219,83
619,981	30201,4
620,176	30811,69
620,371	30580,27
620,566	30795,31
620,761	30236,21
620,956	30400,05
621,151	29980,21
621,346	30125,62
621,541	29931,06
621,735	30352,94
621,93	29587
622,125	30094,9
622,32	29320,77
622,515	29523,52
622,709	28837,45
622,904	29204,03
623,099	29068,87
623,294	29535,81
623,488	28849,74
623,683	28810,82
623,878	28098,13
624,072	28567,12
624,267	28407,37
624,462	28526,16
624,656	28210,77
624,851	27835,99
625,046	27577,95
625,24	28057,17
625,435	27627,1
625,629	27643,48
625,824	27829,85
626,018	28132,95
626,213	27373,15
626,407	27797,08
626,602	26926,69
626,796	27072,1
626,991	26119,79
627,185	25882,23
627,38	25585,27
627,574	24907,4
627,768	24854,15
627,963	25601,66
628,157	25126,53
628,352	25208,45
628,546	25204,35
628,74	25699,96
628,935	24809,09
629,129	25208,45
629,323	24491,66
629,517	24675,98
629,712	24577,67
629,906	24610,44
630,1	24204,94
630,294	24936,07
630,489	25271,93
630,683	25333,37
630,877	25308,8
631,071	25239,17
631,265	25122,43
631,459	25314,94
631,653	25177,73
631,848	25671,29
632,042	25652,86
632,236	26029,68
632,43	25339,52
632,624	26134,13
632,818	25722,49
633,012	25669,24
633,206	25544,31
633,4	25917,04
633,594	25947,76
633,788	26302,06
633,982	26619,5
634,176	26314,35
634,369	26005,11
634,563	26310,25
634,757	26326,64
634,951	26809,96
635,145	26635,88
635,339	26627,69
635,533	26369,65
635,726	26861,16
635,92	26187,38
636,114	26871,4
636,308	26515,05
636,501	26926,69
636,695	26816,1
636,889	27192,93
637,083	26803,81
637,276	26906,21
637,47	27166,31
637,664	27166,31
637,857	27170,4
638,051	27643,48
638,244	26984,04
638,438	27070,05
638,632	26517,1
638,825	26418,8
639,019	26453,61
639,212	26678,89
639,406	26457,71
639,599	26484,33
639,793	26355,31
639,986	26060,4
640,18	26168,94
640,373	26467,95
640,567	26300,01
640,76	26615,4
640,954	26144,37
641,147	26187,38
641,34	26496,62
641,534	26848,87
641,727	26490,48
641,92	26680,94
642,114	26310,25
642,307	26861,16
642,5	26875,49
642,694	26447,47
642,887	26140,27
643,08	26351,21
643,273	25986,68
643,467	25933,43
643,66	26105,46
643,853	26513
644,046	26265,2
644,239	26617,45
644,432	26383,98
644,626	25697,91
644,819	25523,83
645,012	25732,73
645,205	26015,35
645,398	25998,96
645,591	25702,01
645,784	26117,75
645,977	25460,35
646,17	25943,67
646,363	25607,8
646,556	25101,95
646,749	25106,05
646,942	25667,19
647,135	24991,36
647,328	25159,3
647,521	24688,26
647,714	24596,1
647,907	24559,24
648,099	25165,44
648,292	25380,48
648,485	24848
648,678	23950,99
648,871	24512,14
649,064	24206,99
649,256	24841,86
649,449	24428,17
649,642	24774,28
649,835	24581,77
650,027	25360
650,22	24927,88
650,413	24948,36
650,605	24524,43
650,798	25015,94
650,991	24284,81
651,183	24495,75
651,376	24077,97
651,568	24157,84
651,761	24497,8
651,954	24620,68
652,146	24721,03
652,339	24702,6
652,531	25140,86
652,724	25032,32
652,916	24743,56
653,109	25230,97
653,301	24761,99
653,494	24661,64
653,686	24858,24
653,879	24915,59
654,071	24372,88
654,263	24336,01
654,456	24153,74
654,648	23889,56
654,84	23719,57
655,033	23752,34
655,225	22472,36
655,417	22355,63
655,61	21386,94
655,802	21438,14
655,994	20240,08
656,186	21087,93
656,379	20868,8
656,571	22357,67
656,763	22083,25
656,955	22425,26
657,148	22931,11
657,34	22974,11
657,532	22904,48
657,724	22990,5
657,916	22996,64
658,108	23373,47
658,3	23424,67
658,492	24032,91
658,684	23651,99
658,876	23864,98
659,068	24170,13
659,26	24067,73
659,452	24133,26
659,644	24991,36
659,836	24555,15
660,028	24815,24
660,22	24176,27
660,412	24903,3
660,604	24227,47
660,796	24665,74
660,988	24575,62
661,18	24462,99
661,372	24520,33
661,563	24358,54
661,755	24247,95
661,947	24931,97
662,139	24891,01
662,331	24448,65
662,522	24198,8
662,714	24200,85
662,906	24301,2
663,097	24407,69
663,289	24100,5
663,481	24245,9
663,673	24342,16
663,864	24082,06
664,056	24098,45
664,247	24766,09
664,439	23959,19
664,631	24379,02
664,822	24268,43
665,014	24659,59
665,205	24678,02
665,397	24243,85
665,588	23692,95
665,78	23955,09
665,971	23711,38
666,163	23852,69
666,354	23244,45
666,546	23803,54
666,737	23680,66
666,929	24247,95
667,12	23670,42
667,311	23658,13
667,503	23926,42
667,694	24368,78
667,885	23604,89
668,077	23924,37
668,268	23322,27
668,459	23563,93
668,651	23541,4
668,842	23705,24
669,033	23434,91
669,224	23553,69
669,416	23461,53
669,607	23944,85
669,798	23527,06
669,989	23471,77
670,18	23576,22
670,371	23617,18
670,563	23072,42
670,754	23602,84
670,945	23365,28
671,136	23762,58
671,327	23754,39
671,518	23482,01
671,709	23000,74
671,9	23277,21
672,091	23156,38
672,282	23412,38
672,473	23125,66
672,664	23701,14
672,855	22916,77
673,046	23129,76
673,237	22929,06
673,428	23244,45
673,619	23367,32
673,809	23164,57
674	22445,74
674,191	22951,59
674,382	22736,55
674,573	22728,36
674,764	22718,12
674,954	23287,45
675,145	22904,48
675,336	23332,51
675,527	23453,34
675,717	23629,46
675,908	22746,79
676,099	23406,23
676,289	22902,43
676,48	22732,45
676,671	22513,32
676,861	22587,05
677,052	22435,5
677,243	22396,59
677,433	22116,01
677,624	22320,81
677,814	22349,48
678,005	22722,21
678,195	22093,49
678,386	22310,57
678,576	22013,62
678,767	22339,24
678,957	22318,76
679,148	22810,28
679,338	22163,12
679,529	22113,97
679,719	21819,06
679,909	22175,41
680,1	21995,18
680,29	22671,01
680,481	22353,58
680,671	22546,09
680,861	21982,9
681,052	22415,02
681,242	21771,96
681,432	22269,61
681,622	21515,96
681,813	21739,19
682,003	22118,06
682,193	22372,01
682,383	22453,93
682,573	22208,17
682,764	21718,71
682,954	22120,11
683,144	21663,41
683,334	21737,14
683,524	21845,68
683,714	22271,66
683,904	21837,49
684,094	22011,57
684,284	21665,46
684,474	22036,14
684,664	22320,81
684,854	22122,16
685,044	21714,61
685,234	21532,34
685,424	21604,02
685,614	21917,36
685,804	20938,43
685,994	20334,28
686,184	19465,94
686,374	18296,55
686,564	15978,25
686,753	14683,94
686,943	12980,03
687,133	12367,68
687,323	12099,4
687,513	12898,11
687,702	12912,44
687,892	13606,7
688,082	13356,85
688,272	13950,76
688,461	13520,69
688,651	13659,95
688,841	13223,73
689,03	13516,59
689,22	13170,49
689,41	13831,98
689,599	13426,48
689,789	13881,13
689,979	13770,54
690,168	14610,21
690,358	14370,6
690,547	15017,75
690,737	15513,36
690,926	15777,55
691,116	15359,77
691,305	16346,89
691,495	16113,42
691,684	17047,29
691,874	17186,55
692,063	17503,99
692,252	17280,76
692,442	17934,06
692,631	17569,52
692,82	18081,52
693,01	17663,73
693,199	18308,84
693,388	17409,78
693,578	17708,79
693,767	17899,25
693,956	17784,56
694,146	17739,51
694,335	17823,47
694,524	17870,58
694,713	18208,49
694,902	17712,88
695,092	18382,57
695,281	17936,11
695,47	18208,49
695,659	18319,08
695,848	18900,7
696,037	18820,83
696,226	19078,88
696,415	18919,14
696,604	19447,51
696,793	19060,45
696,982	19021,53
697,171	19031,77
697,36	19414,74
697,549	19042,01
697,738	19320,54
697,927	18824,93
698,116	19418,84
698,305	18767,59
698,494	19099,36
698,683	19132,12
698,872	19160,8
699,061	18816,74
699,25	18290,41
699,438	18425,57
699,627	18757,35
699,816	18519,78
700,005	18697,95
700,193	18464,49
700,382	18153,19
700,571	18161,39
700,76	18550,5
700,948	18546,4
701,137	18357,99
701,326	18456,29
701,514	18370,28
701,703	17895,15
701,892	18034,41
702,08	17944,3
702,269	17929,97
702,457	18136,81
702,646	18849,5
702,834	18355,94
703,023	18593,51
703,212	18357,99
703,4	18636,52
703,589	18161,39
703,777	18896,61
703,965	18487,01
704,154	19021,53
704,342	18683,62
704,531	19330,78
704,719	18335,46
704,907	18527,97
705,096	18034,41
705,284	18515,69
705,472	17981,17
705,661	18654,95
705,849	18822,88
706,037	18398,95
706,226	17839,86
706,414	18218,73
706,602	18208,49
706,79	18317,03
706,979	18413,29
707,167	18882,27
707,355	18263,79
707,543	18994,91
707,731	18669,28
707,919	18398,95
708,107	17829,62
708,296	17854,19
708,484	17727,22
708,672	18056,94
708,86	17776,37
709,048	17903,34
709,236	18298,6
709,424	18327,27
709,612	18159,34
709,8	18149,1
709,988	17291
710,176	17645,3
710,364	17585,91
710,551	17946,35
710,739	17702,64
710,927	18167,53
711,115	17970,93
711,303	17911,53
711,491	17575,67
711,679	17923,82
711,866	17663,73
712,054	18188,01
712,242	17463,03
712,43	17938,16
712,617	17245,94
712,805	17284,86
712,993	17469,17
713,181	17553,14
713,368	16985,85
713,556	17635,06
713,744	16748,29
713,931	17442,55
714,119	17291
714,306	17807,09
714,494	16899,84
714,682	17434,36
714,869	16660,23
715,057	16992
715,244	16928,51
715,432	17671,92
715,619	16846,59
715,807	17039,1
715,994	16805,63
716,182	16269,06
716,369	15644,43
716,556	15218,46
716,744	14929,69
716,931	14765,85
717,119	14001,96
717,306	13702,96
717,493	13600,56
717,681	13393,72
717,868	12808
718,055	12689,21
718,242	12052,3
718,43	12275,52
718,617	11523,92
718,804	11487,06
718,991	11222,87
719,179	11319,12
719,366	11237,2
719,553	11456,34
719,74	10745,69
719,927	11196,25
720,114	10915,67
720,301	10944,34
720,488	10991,45
720,676	11566,93
720,863	11700,05
721,05	12232,52
721,237	12752,7
721,424	13201,21
721,611	13246,26
721,798	13365,04
721,985	12937,02
722,172	13494,07
722,358	12965,69
722,545	13659,95
722,732	13020,99
722,919	13279,03
723,106	12810,04
723,293	12980,03
723,48	12431,17
723,667	12355,4
723,853	11685,71
724,04	12400,45
724,227	12013,38
724,414	11953,99
724,6	11726,67
724,787	11982,67
724,974	11573,07
725,161	11880,27
725,347	11540,3
725,534	12195,65
725,72	11804,49
725,907	11806,54
726,094	11564,88
726,28	11841,36
726,467	11867,98
726,653	11724,62
726,84	11429,71
727,027	11945,8
727,213	11808,59
727,4	11781,96
727,586	11530,06
727,773	11550,54
727,959	11611,98
728,145	11628,37
728,332	11751,24
728,518	12074,82
728,705	11757,39
728,891	11571,02
729,077	11460,43
729,264	11585,36
729,45	11216,72
729,636	11919,18
729,823	11751,24
730,009	12105,54
730,195	11859,79
730,382	11980,62
730,568	11597,65
730,754	11605,84
730,94	11741
731,126	11751,24
731,313	11405,14
731,499	11945,8
731,685	12001,1
731,871	12431,17
732,057	12508,99
732,243	12621,63
732,429	12588,86
732,615	12537,66
732,801	12574,53
732,987	12603,2
733,173	12654,4
733,359	13344,56
733,545	12998,46
733,731	12781,37
733,917	12883,77
734,103	13350,71
734,289	13219,64
734,475	13258,55
734,661	13223,73
734,847	13627,18
735,033	13076,28
735,219	13119,29
735,404	13252,41
735,59	13401,91
735,776	12812,09
735,962	12926,78
736,148	12902,2
736,333	13197,11
736,519	12898,11
736,705	13432,63
736,89	12887,87
737,076	12900,16
737,262	12980,03
737,447	13381,43
737,633	13295,41
737,819	13561,65
738,004	13133,62
738,19	13137,72
738,375	12822,33
738,561	13424,44
738,747	12988,22
738,932	13326,13
739,118	12664,64
739,303	12855,1
739,489	12670,78
739,674	12595,01
739,859	12853,05
740,045	12898,11
740,23	13004,6
740,416	13211,45
740,601	12787,52
740,786	13045,56
740,972	13066,04
741,157	13297,46
741,342	12730,17
741,528	12969,79
741,713	12855,1
741,898	12787,52
742,084	12076,87
742,269	12719,93
742,454	12302,15
742,639	12775,23
742,824	12416,83
743,01	12889,92
743,195	12851
743,38	12797,76
743,565	12504,9
743,75	12523,33
743,935	12558,14
744,12	12941,11
744,305	12515,14
744,49	12386,11
744,675	12078,92
744,86	12566,34
745,045	12324,68
745,23	12599,1
745,415	12531,52
745,6	12672,83
745,785	12750,65
745,97	12887,87
746,155	12332,87
746,34	12672,83
746,525	12324,68
746,71	12584,77
746,895	12005,19
747,079	12347,2
747,264	12087,11
747,449	12578,62
747,634	12193,61
747,819	12336,96
748,003	12105,54
748,188	12748,61
748,373	12183,37
748,557	12504,9
748,742	12005,19
748,927	12406,59
749,111	11951,95
749,296	12044,1
749,481	11784,01
749,665	11835,21
749,85	11415,38
750,034	11988,81
750,219	11738,96
750,404	11933,51
750,588	11837,26
750,773	11794,25
750,957	11792,2
751,141	12040,01
751,326	11511,63
751,51	12046,15
751,695	11482,96
751,879	11605,84
752,064	11620,17
752,248	11544,4
752,432	11591,5
752,617	11521,87
752,801	11237,2
752,985	11587,41
753,17	10985,3
753,354	11255,64
753,538	11392,85
753,722	11437,91
753,907	11216,72
754,091	11409,23
754,275	11495,25
754,459	11712,33
754,643	11274,07
754,828	11312,98
755,012	10993,5
755,196	11401,04
755,38	10923,87
755,564	11474,77
755,748	11224,92
755,932	11485,01
756,116	11061,08
756,3	11036,5
756,484	10485,6
756,668	10780,51
756,852	10661,73
757,036	10682,2
757,22	10358,63
757,404	10653,53
757,588	10239,84
757,772	10829,66
757,956	10821,47
758,14	10544,99
758,323	10307,43
758,507	10536,8
758,691	10196,84
758,875	9985,9
759,059	9172,85
759,242	8796,03
759,426	7663,5
759,61	6942,61
759,794	5111,73
759,977	4036,55
760,161	2742,23
760,345	1812,45
760,528	1050,61
760,712	737,27
760,895	391,16
761,079	354,3
761,263	210,94
761,446	221,18
761,63	317,44
761,813	438,27
761,997	442,36
762,18	487,42
762,364	436,22
762,547	438,27
762,731	194,56
762,914	202,75
763,098	88,06
763,281	120,83
763,464	151,55
763,648	53,25
763,831	22,53
764,015	114,69
764,198	28,67
764,381	155,65
764,564	280,57
764,748	405,5
764,931	561,14
765,114	669,69
765,297	849,91
765,481	1478,63
765,664	1501,16
765,847	2029,54
766,03	2525,15
766,213	2998,23
766,397	3147,73
766,58	4110,27
766,763	4329,41
766,946	4980,66
767,129	5240,75
767,312	6086,56
767,495	6340,51
767,678	6985,62
767,861	7069,59
768,044	7813
768,227	7909,26
768,41	8630,14
768,593	8869,75
768,776	9191,28
768,959	9240,43
769,142	9510,77
769,324	9242,48
769,507	10035,05
769,69	9787,24
769,873	10139,49
770,056	10033
770,239	10307,43
770,421	10473,31
770,604	10710,88
770,787	10588
770,97	10960,73
771,152	10915,67
771,335	11571,02
771,518	10921,82
771,7	11169,62
771,883	10938,2
772,066	11247,44
772,248	11337,56
772,431	12001,1
772,613	11759,44
772,796	11681,61
772,978	12099,4
773,161	12164,93
773,343	11931,47
773,526	11919,18
773,708	11677,52
773,891	12246,85
774,073	11571,02
774,256	12154,69
774,438	11607,89
774,621	11896,65
774,803	11454,29
774,985	11573,07
775,168	11212,63
775,35	11282,26
775,532	11169,62
775,715	12027,72
775,897	11605,84
776,079	11923,27
776,261	11804,49
776,444	12236,61
776,626	12175,17
776,808	12371,78
776,99	12083,02
777,173	12128,07
777,355	11292,5
777,537	11767,63
777,719	11558,74
777,901	11951,95
778,083	11763,53
778,265	11870,03
778,447	11734,86
778,629	11765,58
778,811	11554,64
778,993	11990,86
779,175	11915,08
779,357	11882,31
779,539	11710,29
779,721	11704,14
779,903	11050,84
780,085	11206,48
780,267	10872,67
780,449	11554,64
780,631	11067,22
780,812	11540,3
780,994	11335,51
781,176	11644,75
781,358	11179,86
781,54	11675,47
781,721	11315,03
781,903	11605,84
782,085	11421,52
782,267	11274,07
782,448	11065,18
782,63	11083,61
782,812	10616,67
782,993	10991,45
783,175	10596,19
783,357	10805,08
783,538	10835,8
783,72	10547,04
783,901	9830,25
784,083	10061,67
784,264	9531,25
784,446	9901,93
784,627	9609,07
784,809	10084,2
784,99	9934,7
785,172	9920,36
785,353	9895,78
785,535	10452,83
785,716	10000,23
785,897	9623,41
786,079	9858,92
786,26	10141,54
786,441	9985,9
786,623	9672,56
786,804	9408,37
786,985	9680,75
787,167	9267,06
787,348	9244,53
787,529	9299,83
787,71	9197,43
787,891	8902,52
788,073	9246,58
788,254	9121,65
788,435	9107,32
788,616	8990,58
788,797	9226,1
788,978	8996,73
789,159	9265,01
789,34	8855,42
789,522	8834,94
789,703	8208,26
789,884	8677,24
790,065	8406,91
790,246	8785,79
790,427	8437,63
790,607	8609,66
790,788	8097,67
790,969	8292,23
791,15	8075,14
791,331	8480,64
791,512	7913,35
791,693	8206,21
791,874	8251,27
792,054	8392,58
792,235	8081,28
792,416	8114,05
792,597	7655,31
792,778	7905,16
792,958	8093,57
793,139	8251,27
793,32	7798,66
793,5	8091,52
793,681	7862,15
793,862	8077,19
794,042	7976,84
794,223	8040,33
794,404	7448,46
794,584	7862,15
794,765	7376,78
794,945	7589,77
795,126	7399,31
795,306	7794,57
795,487	7430,03
795,667	7454,61
795,848	7051,16
796,028	7382,93
796,209	7337,87
796,389	7479,18
796,57	6918,04
796,75	7178,13
796,93	6834,07
797,111	6862,74
797,291	6844,31
797,471	7335,82
797,652	7188,37
797,832	7323,54
798,012	7229,33
798,192	7047,06
798,373	7114,64
798,553	7501,71
798,733	6856,6
798,913	6791,06
799,093	6791,06
799,274	6918,04
799,454	6492,06
799,634	6891,41
799,814	6850,46
799,994	6823,83
800,174	6600,6
800,354	6686,62
800,534	6557,6
800,714	6565,79
800,894	6770,58
801,074	6580,12
801,254	6432,67
801,434	6715,29
801,614	6238,11
801,794	6483,87
801,974	6176,67
802,154	6459,29
802,334	6197,15
802,514	6551,45
802,693	6266,78
802,873	6397,85
803,053	6160,29
803,233	6180,77
803,413	6254,5
803,592	6533,02
803,772	6164,39
803,952	6659,99
804,131	6207,39
804,311	6199,2
804,491	6305,7
804,67	6139,81
804,85	5746,6
805,03	6059,94
805,209	5588,91
805,389	5922,73
805,568	5652,39
805,748	6041,51
805,928	5869,48
806,107	6418,33
806,287	5713,83
806,466	6197,15
806,646	5943,21
806,825	5820,33
807,004	5894,05
807,184	6035,36
807,363	5832,61
807,543	5851,05
807,722	5871,53
807,901	5781,42
808,081	5568,43
808,26	5709,74
808,439	5607,34
808,619	5951,4
808,798	5500,84
808,977	5590,95
809,156	5705,64
809,336	5705,64
809,515	5429,17
809,694	5701,55
809,873	5253,04
810,052	5609,39
810,231	5341,1
810,411	5349,29
810,59	5250,99
810,769	5341,1
810,948	4878,26
811,127	5410,73
811,306	5035,96
811,485	5124,02
811,664	4868,02
811,843	5150,64
812,022	4777,91
812,201	4995
812,38	4636,6
812,559	5072,82
812,737	4640,7
812,916	4843,45
813,095	4444,09
813,274	4618,17
813,453	4425,66
813,632	4595,64
813,811	4059,07
813,989	3995,59
814,168	3696,58
814,347	3925,96
814,526	3825,61
814,704	4018,11
814,883	3487,69
815,062	3643,34
815,24	3266,51
815,419	3379,15
815,598	2942,93
815,776	3246,03
815,955	2858,96
816,133	3149,78
816,312	2772,95
816,49	2721,75
816,669	2480,09
816,847	2693,08
817,026	2717,65
817,204	2514,91
817,383	2504,67
817,561	2824,15
817,74	2600,92
817,918	2656,22
818,097	2598,87
818,275	2633,69
818,453	2334,68
818,632	2602,97
818,81	2314,2
818,988	2553,82
819,167	2377,69
819,345	2543,58
819,523	2478,04
819,701	2607,06
819,879	2533,34
820,058	2566,1
820,236	2428,89
820,414	2740,18
820,592	2555,86
820,77	3061,71
820,948	2904,02
821,127	3219,41
821,305	3030,99
821,483	3059,67
821,661	2926,55
821,839	3252,17
822,017	3080,14
822,195	3080,14
822,373	2863,06
822,551	3024,85
822,729	2658,26
822,907	2412,51
823,085	2232,29
823,262	2226,14
823,44	1761,25
823,618	1873,89
823,796	1578,98
823,974	1949,67
824,152	1826,79
824,329	2195,42
824,507	2004,96
824,685	2439,13
824,863	2328,54
825,04	2660,31
825,218	2758,61
825,396	3024,85
825,574	2899,92
825,751	2979,79
825,929	2883,54
826,107	2738,13
826,284	2754,52
826,462	2910,16
826,639	2564,06
826,817	2803,67
826,994	2531,29
827,172	2867,16
827,349	2570,2
827,527	2781,14
827,704	2269,15
827,882	2553,82
828,059	2217,95
828,237	2260,96
828,414	2136,03
828,591	2121,7
828,769	2088,93
828,946	2402,27
829,124	2004,96
829,301	2215,9
829,478	1837,03
829,655	2086,88
829,833	1886,18
830,01	2093,02
830,187	1880,04
830,364	2054,11
830,542	2111,46
830,719	2047,97
830,896	2086,88
831,073	2369,5
831,25	2088,93
831,427	2346,97
831,604	2310,11
831,782	2473,95
831,959	2226,14
832,136	2291,68
832,313	2043,87
832,49	2000,87
832,667	1966,05
832,844	2193,37
833,021	1920,99
833,198	2062,3
833,374	2035,68
833,551	2150,37
833,728	2125,79
833,905	2256,86
834,082	1945,57
834,259	2133,98
834,436	2023,39
834,612	2185,18
834,789	2123,74
834,966	2260,96
835,143	1945,57
835,319	2414,56
835,496	1998,82
835,673	2226,14
835,85	2058,21
836,026	2187,23
836,203	2154,46
836,38	2119,65
836,556	1800,16
836,733	1959,91
836,909	1931,23
837,086	1978,34
837,262	2150,37
837,439	2273,25
837,616	2310,11
837,792	2285,53
837,968	2045,92
838,145	2222,05
838,321	2125,79
838,498	2164,7
838,674	1884,13
838,851	2095,07
839,027	1890,28
839,203	2015,2
839,38	1804,26
839,556	2019,3
839,732	1908,71
839,909	2162,66
840,085	1931,23
840,261	2138,08
840,437	2109,41
840,614	2113,5
840,79	1871,84
840,966	2150,37
841,142	1736,68
841,318	2172,89
841,494	1820,64
841,671	2101,22
841,847	1832,93
842,023	2052,06
842,199	1773,54
842,375	1865,7
842,551	1658,85
842,727	1980,39
842,903	1771,49
843,079	1953,76
843,255	1648,61
843,431	1982,43
843,607	1832,93
843,783	2017,25
843,959	1808,36
844,134	2035,68
844,31	1628,14
844,486	1740,77
844,662	1689,57
844,838	1755,11
845,013	1591,27
845,189	1570,79
845,365	1486,83
845,541	1703,91
845,716	1409
845,892	1771,49
846,068	1693,67
846,244	1787,88
846,419	1673,19
846,595	1611,75
846,77	1634,28
846,946	1675,24
847,122	1669,09
847,297	1710,05
847,473	1718,25
847,648	1628,14
847,824	1437,67
847,999	1374,19
848,175	1503,21
848,35	1581,03
848,526	1447,91
848,701	1603,56
848,876	1394,67
849,052	1581,03
849,227	1372,14
849,403	1585,13
849,578	1458,15
849,753	1429,48
849,929	1322,99
850,104	1157,1
850,279	972,79
850,454	1085,42
850,63	1026,03
850,805	1083,38
850,98	962,55
851,155	1083,38
851,33	1011,7
851,505	1132,53
851,681	1071,09
851,856	1054,7
852,031	987,12
852,206	1028,08
852,381	888,82
852,556	1046,51
852,731	958,45
852,906	1097,71
853,081	1011,7
853,256	1163,25
853,431	833,52
853,606	1083,38
853,781	956,4
853,956	1069,04
854,131	944,11
854,305	813,04
854,48	735,22
854,655	593,91
854,83	593,91
855,005	544,76
855,18	538,62
855,354	475,13
855,529	628,73
855,704	573,43
855,879	655,35
856,053	935,92
856,228	862,19
856,403	962,55
856,577	780,28
856,752	1009,65
856,926	856,05
857,101	976,88
857,276	776,18
857,45	956,4
857,625	790,52
857,799	905,2
857,974	724,98
858,148	952,31
858,323	749,56
858,497	847,86
858,672	815,09
858,846	767,99
859,02	634,87
859,195	706,55
859,369	839,67
859,543	821,24
859,718	737,27
859,892	813,04
860,066	856,05
860,241	741,36
860,415	636,92
860,589	729,08
860,763	581,62
860,938	624,63
861,112	641,01
861,286	634,87
861,46	663,54
861,634	698,36
861,808	530,42
861,982	636,92
862,157	542,71
862,331	657,4
862,505	522,23
862,679	571,38
862,853	636,92
863,027	643,06
863,201	528,38
863,375	542,71
863,549	538,62
863,722	509,94
863,896	573,43
864,07	522,23
864,244	528,38
864,418	450,55
864,592	430,07
864,766	575,48
864,939	587,77
865,113	544,76
865,287	503,8
865,461	471,03
865,634	587,77
865,808	475,13
865,982	454,65
866,156	440,31
866,329	282,62
866,503	307,2
866,676	276,48
866,85	237,56
867,024	296,96
867,197	221,18
867,371	241,66
867,544	288,76
867,718	233,47
867,891	333,82
868,065	284,67
868,238	299
868,412	329,72
868,585	382,97
868,759	290,81
868,932	374,78
869,105	356,35
869,279	403,45
869,452	299
869,625	331,77
869,799	299
869,972	237,56
870,145	323,58
870,319	317,44
870,492	307,2
870,665	272,38
870,838	282,62
871,011	260,09
871,185	239,61
871,358	301,05
871,531	284,67
871,704	280,57
871,877	299
872,05	249,85
872,223	233,47
872,396	301,05
872,569	296,96
872,742	202,75
872,915	268,28
873,088	313,34
873,261	163,84
873,434	223,23
873,607	219,13
873,78	215,04
873,953	210,94
874,126	268,28
874,299	167,93
874,471	231,42
874,644	176,13
874,817	184,32
874,99	237,56
875,163	221,18
875,335	208,89
875,508	272,38
875,681	184,32
875,853	200,7
876,026	206,84
876,199	212,99
876,371	167,93
876,544	225,28
876,717	126,97
876,889	208,89
877,062	172,03
877,234	165,89
877,407	229,37
877,579	194,56
877,752	145,41
877,924	169,98
878,097	237,56
878,269	190,46
878,442	212,99
878,614	153,6
878,786	159,74
878,959	165,89
879,131	178,17
879,303	157,69
879,476	217,08
879,648	172,03
879,82	182,27
879,993	202,75
880,165	47,1
880,337	163,84
880,509	120,83
880,681	131,07
880,854	131,07
881,026	94,21
881,198	139,26
881,37	81,92
881,542	129,02
881,714	106,49
881,886	73,73
882,058	102,4
882,23	149,5
882,402	157,69
882,574	94,21
882,746	165,89
882,918	83,97
883,09	57,34
883,262	126,97
883,434	190,46
883,606	104,45
883,778	100,35
883,95	153,6
884,122	49,15
884,293	69,63
884,465	120,83
884,637	172,03
884,809	143,36
884,98	34,82
885,152	131,07
885,324	114,69
885,496	100,35
885,667	137,21
885,839	147,45
886,011	14,34
886,182	163,84
886,354	30,72
886,525	126,97
886,697	102,4
886,869	20,48
887,04	118,78
887,212	79,87
887,383	79,87
887,555	104,45
887,726	88,06
887,897	83,97
888,069	102,4
888,24	59,39
888,412	4,1
888,583	79,87
888,754	59,39
888,926	98,3
889,097	104,45
889,268	61,44
889,44	83,97
889,611	47,1
889,782	90,11
889,953	10,24
890,125	53,25
890,296	110,59
890,467	45,06
890,638	102,4
890,809	34,82
890,98	81,92
891,151	118,78
891,323	79,87
891,494	65,54
891,665	-10,24
891,836	106,49
892,007	38,91
892,178	92,16
892,349	49,15
892,52	71,68
892,691	43,01
892,862	47,1
893,032	51,2
893,203	47,1
893,374	106,49
893,545	63,49
893,716	-2,05
893,887	94,21
894,057	14,34
894,228	32,77
894,399	40,96
894,57	51,2
894,74	28,67
894,911	63,49
895,082	20,48
895,253	102,4
895,423	6,14
895,594	-26,62
895,764	20,48
895,935	30,72
896,106	73,73
896,276	28,67
896,447	34,82
896,617	38,91
896,788	26,62
896,958	81,92
897,129	45,06
897,299	28,67
897,47	38,91
897,64	47,1
897,81	26,62
897,981	6,14
898,151	77,82
898,322	124,93
898,492	8,19
898,662	69,63
898,832	-12,29
899,003	-73,73
899,173	22,53
899,343	47,1
899,513	-8,19
