Data from atmo_200_USB4F104151__0__16-41-40-647.txt Node

Date: Thu Mar 07 16:41:40 EST 2024
User: lauri
Spectrometer: USB4F10415
Trigger mode: 4
Integration Time (sec): 2,000000E-1
Scans to average: 1
Electric dark correction enabled: true
Nonlinearity correction enabled: false
Boxcar width: 0
XAxis mode: Wavelengths
Number of Pixels in Spectrum: 3648
>>>>>Begin Spectral Data<<<<<
178,204	-212,48
178,424	-212,48
178,644	-212,48
178,864	-130,56
179,084	-159,23
179,304	41,47
179,524	-38,4
179,744	-81,41
179,964	43,52
180,184	37,38
180,404	-3,58
180,624	-34,3
180,844	31,23
181,064	-75,26
181,283	98,81
181,503	-52,74
181,723	33,28
181,943	-50,69
182,163	51,71
182,383	68,09
182,602	117,25
182,822	115,2
183,042	147,97
183,262	23,04
183,482	51,71
183,701	76,29
183,921	76,29
184,141	39,42
184,361	131,58
184,58	70,14
184,8	51,71
185,02	41,47
185,239	141,82
185,459	61,95
185,679	162,3
185,898	80,38
186,118	88,57
186,338	115,2
186,557	76,29
186,777	47,62
186,997	121,34
187,216	113,15
187,436	127,49
187,655	102,91
187,875	55,81
188,095	117,25
188,314	160,25
188,534	168,45
188,753	18,94
188,973	123,39
189,192	154,11
189,412	43,52
189,631	145,92
189,851	111,1
190,07	123,39
190,29	57,86
190,509	100,86
190,729	47,62
190,948	131,58
191,168	248,32
191,387	166,4
191,607	35,33
191,826	98,81
192,045	45,57
192,265	123,39
192,484	90,62
192,704	72,19
192,923	39,42
193,142	238,08
193,362	64
193,581	86,53
193,8	72,19
194,02	88,57
194,239	33,28
194,458	102,91
194,678	57,86
194,897	33,28
195,116	90,62
195,335	16,9
195,555	37,38
195,774	61,95
195,993	82,43
196,212	94,72
196,432	84,48
196,651	147,97
196,87	98,81
197,089	160,25
197,308	57,86
197,528	143,87
197,747	74,24
197,966	141,82
198,185	152,06
198,404	53,76
198,623	115,2
198,842	96,77
199,062	137,73
199,281	145,92
199,5	76,29
199,719	78,33
199,938	51,71
200,157	199,16
200,376	39,42
200,595	152,06
200,814	102,91
201,033	104,96
201,252	90,62
201,471	53,76
201,69	131,58
201,909	2,56
202,128	76,29
202,347	107,01
202,566	117,25
202,785	55,81
203,004	109,05
203,223	188,93
203,442	117,25
203,661	94,72
203,879	33,28
204,098	141,82
204,317	86,53
204,536	111,1
204,755	115,2
204,974	135,68
205,193	127,49
205,411	260,6
205,63	39,42
205,849	123,39
206,068	115,2
206,287	70,14
206,505	141,82
206,724	98,81
206,943	55,81
207,162	6,66
207,381	59,9
207,599	123,39
207,818	86,53
208,037	82,43
208,255	61,95
208,474	113,15
208,693	156,16
208,911	68,09
209,13	92,67
209,349	98,81
209,567	98,81
209,786	150,01
210,005	164,35
210,223	35,33
210,442	31,23
210,661	121,34
210,879	170,49
211,098	64
211,316	131,58
211,535	64
211,753	102,91
211,972	100,86
212,191	133,63
212,409	47,62
212,628	135,68
212,846	49,66
213,065	107,01
213,283	156,16
213,502	68,09
213,72	61,95
213,938	98,81
214,157	78,33
214,375	147,97
214,594	102,91
214,812	39,42
215,031	41,47
215,249	137,73
215,467	64
215,686	158,21
215,904	72,19
216,122	57,86
216,341	111,1
216,559	111,1
216,778	80,38
216,996	80,38
217,214	88,57
217,432	121,34
217,651	74,24
217,869	92,67
218,087	125,44
218,306	109,05
218,524	131,58
218,742	25,09
218,96	90,62
219,179	98,81
219,397	61,95
219,615	166,4
219,833	98,81
220,051	61,95
220,27	92,67
220,488	88,57
220,706	53,76
220,924	88,57
221,142	98,81
221,36	84,48
221,578	113,15
221,796	43,52
222,015	72,19
222,233	25,09
222,451	129,53
222,669	25,09
222,887	131,58
223,105	76,29
223,323	43,52
223,541	127,49
223,759	188,93
223,977	43,52
224,195	135,68
224,413	172,54
224,631	6,66
224,849	154,11
225,067	197,12
225,285	43,52
225,503	127,49
225,721	45,57
225,939	82,43
226,157	59,9
226,375	154,11
226,592	96,77
226,81	59,9
227,028	133,63
227,246	207,36
227,464	86,53
227,682	98,81
227,9	197,12
228,117	111,1
228,335	64
228,553	-24,06
228,771	166,4
228,989	201,21
229,206	102,91
229,424	55,81
229,642	16,9
229,86	41,47
230,077	123,39
230,295	107,01
230,513	121,34
230,731	84,48
230,948	186,88
231,166	180,73
231,384	82,43
231,601	35,33
231,819	115,2
232,037	53,76
232,254	31,23
232,472	168,45
232,689	23,04
232,907	170,49
233,125	57,86
233,342	68,09
233,56	59,9
233,777	135,68
233,995	107,01
234,213	139,77
234,43	190,97
234,648	117,25
234,865	35,33
235,083	66,05
235,3	76,29
235,518	96,77
235,735	158,21
235,953	107,01
236,17	115,2
236,388	104,96
236,605	107,01
236,822	82,43
237,04	207,36
237,257	182,78
237,475	84,48
237,692	131,58
237,909	80,38
238,127	152,06
238,344	86,53
238,562	141,82
238,779	27,14
238,996	53,76
239,214	113,15
239,431	182,78
239,648	51,71
239,865	57,86
240,083	94,72
240,3	111,1
240,517	78,33
240,735	160,25
240,952	201,21
241,169	162,3
241,386	186,88
241,603	20,99
241,821	74,24
242,038	164,35
242,255	92,67
242,472	41,47
242,689	133,63
242,907	86,53
243,124	164,35
243,341	78,33
243,558	74,24
243,775	86,53
243,992	45,57
244,209	125,44
244,426	113,15
244,643	186,88
244,86	80,38
245,078	123,39
245,295	113,15
245,512	98,81
245,729	133,63
245,946	178,69
246,163	98,81
246,38	84,48
246,597	107,01
246,814	168,45
247,031	94,72
247,248	41,47
247,464	150,01
247,681	147,97
247,898	109,05
248,115	90,62
248,332	53,76
248,549	150,01
248,766	166,4
248,983	156,16
249,2	100,86
249,417	125,44
249,633	-11,78
249,85	141,82
250,067	172,54
250,284	92,67
250,501	70,14
250,717	59,9
250,934	16,9
251,151	117,25
251,368	82,43
251,585	59,9
251,801	14,85
252,018	57,86
252,235	139,77
252,451	66,05
252,668	57,86
252,885	100,86
253,102	180,73
253,318	43,52
253,535	186,88
253,752	109,05
253,968	27,14
254,185	57,86
254,401	84,48
254,618	107,01
254,835	47,62
255,051	199,16
255,268	84,48
255,484	59,9
255,701	72,19
255,917	74,24
256,134	76,29
256,351	141,82
256,567	109,05
256,784	150,01
257	84,48
257,217	133,63
257,433	166,4
257,65	117,25
257,866	150,01
258,082	88,57
258,299	104,96
258,515	123,39
258,732	131,58
258,948	125,44
259,165	64
259,381	59,9
259,597	57,86
259,814	123,39
260,03	53,76
260,246	49,66
260,463	129,53
260,679	113,15
260,895	168,45
261,112	117,25
261,328	178,69
261,544	119,29
261,761	133,63
261,977	109,05
262,193	43,52
262,409	139,77
262,626	82,43
262,842	82,43
263,058	109,05
263,274	127,49
263,49	76,29
263,707	150,01
263,923	61,95
264,139	90,62
264,355	47,62
264,571	190,97
264,787	129,53
265,004	195,07
265,22	166,4
265,436	66,05
265,652	135,68
265,868	125,44
266,084	90,62
266,3	109,05
266,516	82,43
266,732	117,25
266,948	70,14
267,164	158,21
267,38	143,87
267,596	49,66
267,812	168,45
268,028	131,58
268,244	74,24
268,46	49,66
268,676	125,44
268,892	133,63
269,108	72,19
269,324	84,48
269,54	27,14
269,756	158,21
269,972	86,53
270,188	78,33
270,403	125,44
270,619	139,77
270,835	166,4
271,051	164,35
271,267	121,34
271,483	119,29
271,698	195,07
271,914	102,91
272,13	168,45
272,346	119,29
272,562	84,48
272,777	133,63
272,993	123,39
273,209	141,82
273,425	174,59
273,64	84,48
273,856	29,18
274,072	129,53
274,287	123,39
274,503	168,45
274,719	88,57
274,934	131,58
275,15	76,29
275,366	113,15
275,581	16,9
275,797	66,05
276,012	188,93
276,228	53,76
276,444	188,93
276,659	201,21
276,875	55,81
277,09	76,29
277,306	80,38
277,521	158,21
277,737	150,01
277,952	203,26
278,168	109,05
278,383	84,48
278,599	76,29
278,814	109,05
279,03	121,34
279,245	150,01
279,461	158,21
279,676	190,97
279,892	82,43
280,107	145,92
280,322	90,62
280,538	78,33
280,753	74,24
280,969	158,21
281,184	68,09
281,399	107,01
281,615	123,39
281,83	141,82
282,045	98,81
282,26	98,81
282,476	117,25
282,691	96,77
282,906	170,49
283,122	178,69
283,337	186,88
283,552	156,16
283,767	43,52
283,983	150,01
284,198	78,33
284,413	123,39
284,628	29,18
284,843	184,83
285,058	170,49
285,274	150,01
285,489	141,82
285,704	154,11
285,919	84,48
286,134	76,29
286,349	102,91
286,564	111,1
286,779	188,93
286,995	72,19
287,21	135,68
287,425	90,62
287,64	147,97
287,855	168,45
288,07	109,05
288,285	193,02
288,5	219,64
288,715	125,44
288,93	111,1
289,145	92,67
289,36	190,97
289,575	90,62
289,79	119,29
290,004	115,2
290,219	119,29
290,434	82,43
290,649	76,29
290,864	150,01
291,079	49,66
291,294	174,59
291,509	43,52
291,724	94,72
291,938	72,19
292,153	229,88
292,368	35,33
292,583	107,01
292,798	188,93
293,012	117,25
293,227	100,86
293,442	123,39
293,657	182,78
293,871	100,86
294,086	119,29
294,301	180,73
294,516	154,11
294,73	154,11
294,945	27,14
295,16	29,18
295,374	174,59
295,589	199,16
295,804	109,05
296,018	111,1
296,233	170,49
296,447	156,16
296,662	221,69
296,877	158,21
297,091	207,36
297,306	90,62
297,52	86,53
297,735	127,49
297,949	109,05
298,164	172,54
298,378	123,39
298,593	49,66
298,807	174,59
299,022	51,71
299,236	223,74
299,451	139,77
299,665	201,21
299,88	193,02
300,094	195,07
300,309	127,49
300,523	137,73
300,737	125,44
300,952	184,83
301,166	197,12
301,381	100,86
301,595	154,11
301,809	174,59
302,024	119,29
302,238	158,21
302,452	170,49
302,667	82,43
302,881	170,49
303,095	170,49
303,309	197,12
303,524	135,68
303,738	170,49
303,952	152,06
304,166	250,36
304,381	145,92
304,595	156,16
304,809	133,63
305,023	164,35
305,237	111,1
305,452	207,36
305,666	225,79
305,88	164,35
306,094	160,25
306,308	246,27
306,522	203,26
306,736	158,21
306,95	256,51
307,164	205,31
307,379	164,35
307,593	287,23
307,807	207,36
308,021	272,89
308,235	348,67
308,449	223,74
308,663	328,19
308,877	401,91
309,091	387,58
309,305	369,15
309,519	330,23
309,733	461,3
309,947	322,04
310,161	520,7
310,374	541,18
310,588	496,12
310,802	440,83
311,016	483,83
311,23	492,02
311,444	469,5
311,658	557,56
311,872	725,49
312,085	668,15
312,299	705,01
312,513	864,75
312,727	858,61
312,941	766,45
313,154	903,67
313,368	936,43
313,582	944,63
313,796	983,54
314,009	1014,26
314,223	1122,8
314,437	1149,42
314,651	1325,55
314,864	1354,22
315,078	1493,48
315,292	1489,39
315,505	1618,41
315,719	1659,37
315,933	1853,92
316,146	1925,6
316,36	2099,68
316,573	2130,4
316,787	2333,15
317,001	2587,1
317,214	2466,27
317,428	2736,6
317,641	2925,01
317,855	2884,05
318,068	3072,47
318,282	3238,35
318,495	3451,34
318,709	3461,58
318,922	3467,72
319,136	3566,03
319,349	3488,2
319,563	3582,41
319,776	3617,22
319,99	3729,86
320,203	3754,44
320,417	3811,78
320,63	3889,6
320,843	4141,5
321,057	4262,33
321,27	4544,95
321,483	4682,17
321,697	4843,96
321,91	4958,64
322,124	5071,28
322,337	5308,85
322,55	5456,3
322,763	5865,89
322,977	6054,31
323,19	6201,76
323,403	6431,13
323,617	7094,68
323,83	7455,12
324,043	7365,01
324,256	7819,66
324,469	7887,24
324,683	8345,98
324,896	8249,73
325,109	8317,31
325,322	8499,58
325,535	8569,21
325,748	8599,93
325,962	8890,74
326,175	9070,97
326,388	9535,85
326,601	9771,37
326,814	9720,17
327,027	9814,38
327,24	10305,89
327,453	10686,81
327,666	10477,92
327,879	10930,52
328,092	10942,81
328,305	10977,62
328,518	10910,04
328,731	10760,54
328,944	10711,39
329,157	10905,95
329,37	10930,52
329,583	11217,24
329,796	11014,49
330,009	10903,9
330,222	11450,71
330,435	11112,79
330,648	11108,69
330,861	11499,86
331,073	11321,68
331,286	11235,67
331,499	11198,81
331,712	11596,11
331,925	11659,6
332,138	11698,51
332,35	11944,27
332,563	11946,31
332,776	11723,09
332,989	11673,93
333,202	11878,73
333,414	11698,51
333,627	11688,27
333,84	11690,32
334,053	11387,22
334,265	11569,49
334,478	11485,52
334,691	11428,18
334,903	11358,55
335,116	11305,3
335,329	11282,77
335,541	11739,47
335,754	11614,54
335,966	11622,73
336,179	12101,96
336,392	12486,98
336,604	12544,32
336,817	12540,22
337,029	13072,7
337,242	13175,09
337,454	13267,25
337,667	13164,86
337,88	13836,59
338,092	13678,9
338,305	13984,04
338,517	14053,67
338,729	14281
338,942	13908,27
339,154	14039,34
339,367	14149,93
339,579	14166,31
339,792	14264,61
340,004	14461,22
340,217	14686,5
340,429	14526,75
340,641	14692,64
340,854	14489,89
341,066	14225,7
341,278	14074,15
341,491	14485,79
341,703	13885,74
341,915	13566,26
342,128	13310,26
342,34	13340,98
342,552	13314,36
342,764	13580,59
342,977	13617,46
343,189	13861,16
343,401	13846,83
343,613	14068,01
343,826	14090,54
344,038	14338,34
344,25	14373,16
344,462	14430,5
344,674	14121,26
344,886	14522,66
345,099	14516,51
345,311	14364,96
345,523	14534,95
345,735	14608,67
345,947	14453,03
346,159	14338,34
346,371	14424,36
346,583	14539,04
346,795	14702,88
347,007	14672,16
347,219	14717,22
347,431	14973,21
347,643	15180,06
347,855	15259,93
348,067	15483,16
348,279	16146,7
348,491	15960,33
348,703	15884,56
348,915	16032,01
349,127	16144,65
349,339	16277,77
349,551	15984,91
349,763	15851,79
349,975	15970,57
350,187	15698,19
350,399	16326,92
350,61	15849,74
350,822	16335,11
351,034	16199,94
351,246	16523,52
351,458	16726,27
351,669	16992,51
351,881	17058,04
352,093	17551,6
352,305	17711,35
352,517	17846,51
352,728	17811,7
352,94	17762,54
353,152	17395,96
353,363	18094,32
353,575	17385,72
353,787	17584,37
353,999	17271,03
354,21	16853,25
354,422	16302,34
354,633	16269,58
354,845	15644,95
355,057	15374,61
355,268	15130,91
355,48	14821,66
355,692	14362,92
355,903	14340,39
356,115	14217,51
356,326	13957,42
356,538	13971,75
356,749	14270,76
356,961	14741,79
357,172	15194,39
357,384	15638,8
357,595	15747,34
357,807	15751,44
358,018	16544
358,23	16533,76
358,441	16677,12
358,653	16734,46
358,864	16640,26
359,075	16613,63
359,287	16670,98
359,498	16673,03
359,709	17133,82
359,921	16965,89
360,132	17232,12
360,344	17350,9
360,555	17498,36
360,766	17891,57
360,977	18092,27
361,189	18313,45
361,4	18278,63
361,611	18499,81
361,823	18426,09
362,034	18905,31
362,245	19138,78
362,456	19181,79
362,667	19714,26
362,879	20037,84
363,09	20121,8
363,301	20887,75
363,512	21029,06
363,723	21401,79
363,935	21700,79
364,146	22151,34
364,357	22274,22
364,568	22395,05
364,779	22700,2
364,99	22919,33
365,201	22491,3
365,412	22558,89
365,623	22888,61
365,834	22419,63
366,045	22464,68
366,256	22257,84
366,467	22579,37
366,678	22423,72
366,889	22558,89
367,1	22321,32
367,311	22952,1
367,522	22671,53
367,733	22915,23
367,944	22745,25
368,155	22976,67
368,366	23150,75
368,577	23093,41
368,788	22585,51
368,999	23048,35
369,209	22554,79
369,42	23113,89
369,631	22429,87
369,842	22390,95
370,053	22173,87
370,264	21799,09
370,474	21561,53
370,685	21237,95
370,896	20437,19
371,107	20474,06
371,317	19599,57
371,528	19249,37
371,739	19001,57
371,95	19128,54
372,16	19218,65
372,371	18897,12
372,582	18897,12
372,792	18909,41
373,003	19103,96
373,214	19550,42
373,424	19751,12
373,635	19644,63
373,846	20590,79
374,056	20619,46
374,267	20701,38
374,477	21412,03
374,688	22061,23
374,898	22102,19
375,109	23171,23
375,319	23517,34
375,53	23885,97
375,74	24658,06
375,951	24457,35
376,161	24963,2
376,372	25454,72
376,582	24721,54
376,793	24498,31
377,003	24918,15
377,214	24131,73
377,424	24158,35
377,635	24227,98
377,845	23605,4
378,055	23214,24
378,266	23779,48
378,476	22761,64
378,686	23206,05
378,897	23066,78
379,107	22964,39
379,317	22718,63
379,528	22067,38
379,738	21684,41
379,948	21106,88
380,158	19869,9
380,369	19071,2
380,579	18596,07
380,789	17981,68
380,999	17547,51
381,21	16998,65
381,42	16720,13
381,63	16763,14
381,84	17129,72
382,05	17015,04
382,261	17008,89
382,471	17830,13
382,681	17604,85
382,891	18817,25
383,101	18966,75
383,311	19312,86
383,521	19458,26
383,731	19470,55
383,941	19724,5
384,151	19761,36
384,361	20328,65
384,571	20652,23
384,781	20324,55
384,991	20920,51
385,201	20293,83
385,411	20867,27
385,621	20496,58
385,831	20820,16
386,041	20578,5
386,251	20906,18
386,461	20555,97
386,671	21192,89
386,881	21577,91
387,091	21416,12
387,301	21604,53
387,511	22767,78
387,72	22800,55
387,93	22968,48
388,14	23492,76
388,35	24250,51
388,56	24344,72
388,769	24598,66
388,979	25006,21
389,189	25051,27
389,399	25100,42
389,609	25321,6
389,818	24842,37
390,028	24649,86
390,238	23617,69
390,447	23015,58
390,657	21440,7
390,867	20414,66
391,076	19017,95
391,286	18725,09
391,496	17451,25
391,705	17402,1
391,915	17604,85
392,125	17864,94
392,334	18213,1
392,544	18780,39
392,753	19339,48
392,963	20486,34
393,172	20930,75
393,382	21428,41
393,591	21727,41
393,801	21788,85
394,01	20625,61
394,22	20633,8
394,429	20664,52
394,639	19488,98
394,848	19165,4
395,058	19355,86
395,267	19327,19
395,477	19376,34
395,686	20865,22
395,895	21602,49
396,105	22864,04
396,314	23740,57
396,524	24825,99
396,733	25733,24
396,942	27207,78
397,152	28559,44
397,361	28405,84
397,57	29513,79
397,78	29427,77
397,989	30525,49
398,198	32180,24
398,407	31827,99
398,617	32456,72
398,826	33019,91
399,035	32405,52
399,244	32364,56
399,453	32987,14
399,663	34123,77
399,872	34267,13
400,081	34729,97
400,29	33642,49
400,499	34568,18
400,708	32989,19
400,917	34846,7
401,127	33693,69
401,336	33746,94
401,545	33595,39
401,754	33460,23
401,963	34713,58
402,172	33783,8
402,381	32772,11
402,59	34256,89
402,799	33105,93
403,008	32956,43
403,217	32860,17
403,426	33150,98
403,635	32550,93
403,844	32471,06
404,053	33089,54
404,262	32725
404,471	32292,88
404,68	32710,67
404,888	31442,98
405,097	31830,04
405,306	32532,5
405,515	32376,85
405,724	32159,77
405,933	33460,23
406,142	32884,75
406,35	32677,9
406,559	34392,05
406,768	34158,58
406,977	33701,89
407,185	34719,73
407,394	33372,16
407,603	34037,75
407,812	33632,25
408,02	33810,43
408,229	33083,4
408,438	32927,75
408,646	32981
408,855	32669,71
409,064	32780,3
409,272	33611,78
409,481	35264,49
409,69	34840,56
409,898	34293,75
410,107	35583,97
410,315	34402,29
410,524	35825,63
410,733	35024,87
410,941	34947,05
411,15	35012,59
411,358	34871,28
411,567	35637,22
411,775	35334,12
411,984	34740,21
412,192	35393,51
412,401	34775,02
412,609	35184,62
412,818	34994,15
413,026	34951,15
413,234	34787,31
413,443	34875,37
413,651	34676,72
413,86	34988,01
414,068	35094,5
414,276	35067,88
414,485	34920,43
414,693	34664,43
414,901	34762,73
415,11	35493,86
415,318	33740,8
415,526	34652,14
415,734	33771,52
415,943	34007,03
416,151	33619,97
416,359	32956,43
416,567	32725
416,776	32894,99
416,984	33355,78
417,192	33368,07
417,4	32581,65
417,608	32342,03
417,817	32792,59
418,025	32448,53
418,233	33132,55
418,441	32636,94
418,649	32786,44
418,857	34160,63
419,065	33046,54
419,273	32636,94
419,481	33105,93
419,689	34086,9
419,897	33966,07
420,105	33759,23
420,313	32698,38
420,521	32841,74
420,729	31848,47
420,937	32546,83
421,145	31846,43
421,353	32274,45
421,561	32159,77
421,769	32268,31
421,977	32854,03
422,185	31320,1
422,393	32178,2
422,601	33138,69
422,809	32167,96
423,017	31453,22
423,224	31664,16
423,432	31500,32
423,64	31434,78
423,848	32931,85
424,056	31021,09
424,263	32045,08
424,471	31832,09
424,679	31094,82
424,887	31637,53
425,094	31709,21
425,302	30822,44
425,51	31377,44
425,718	30326,83
425,925	30560,3
426,133	30734,38
426,341	31209,51
426,548	31307,81
426,756	30525,49
426,964	30210,1
427,171	30988,33
427,379	29999,16
427,586	29335,62
427,794	28944,45
428,001	29085,76
428,209	28260,43
428,417	26536,04
428,624	27068,51
428,832	26226,8
429,039	25333,89
429,247	25493,63
429,454	26732,65
429,662	28649,55
429,869	27234,4
430,076	29325,38
430,284	28383,31
430,491	29616,19
430,699	31039,53
430,906	30984,23
431,114	30849,07
431,321	31168,55
431,528	30900,26
431,736	32426
431,943	33001,48
432,15	31776,8
432,358	31606,81
432,565	31920,15
432,772	31604,77
432,979	32288,79
433,187	32761,87
433,394	32991,24
433,601	34377,72
433,808	34359,28
434,016	33615,87
434,223	34615,28
434,43	36339,67
434,637	35069,93
434,844	36655,06
435,052	36943,82
435,259	35717,09
435,466	35065,83
435,673	34353,14
435,88	35708,9
436,087	35958,75
436,294	34826,22
436,501	33294,34
436,708	33118,21
436,915	33312,77
437,122	34172,92
437,329	33382,4
437,537	34265,08
437,743	33832,96
437,95	33454,08
438,157	34129,91
438,364	35000,3
438,571	34678,77
438,778	34095,1
438,985	35981,27
439,192	34850,8
439,399	35809,25
439,606	34445,3
439,813	36351,96
440,02	37855,17
440,227	36925,39
440,433	36104,15
440,64	37318,6
440,847	36194,26
441,054	36302,81
441,261	37902,27
441,467	36648,91
441,674	36992,97
441,881	37265,35
442,088	37316,55
442,294	36564,95
442,501	36902,86
442,708	36734,93
442,914	37650,37
443,121	38080,44
443,328	36859,85
443,534	38442,93
443,741	36181,98
443,948	35201
444,154	37011,4
444,361	35741,66
444,568	35317,73
444,774	34652,14
444,981	34623,47
445,187	35508,19
445,394	36556,75
445,6	35749,85
445,807	38340,53
446,013	36184,02
446,22	36814,8
446,426	37492,68
446,633	37576,64
446,839	37584,83
447,046	35944,41
447,252	37873,6
447,459	37400,52
447,665	36605,91
447,871	37736,38
448,078	38326,2
448,284	37216,2
448,491	37930,94
448,697	38471,6
448,903	39303,08
449,11	38821,81
449,316	37965,76
449,522	38649,78
449,728	39024,56
449,935	38965,17
450,141	38334,39
450,347	38870,96
450,553	37095,37
450,76	37097,42
450,966	36941,77
451,172	36902,86
451,378	37040,07
451,584	36638,67
451,791	36235,22
451,997	36366,29
452,203	36532,18
452,409	36911,05
452,615	37085,13
452,821	35874,78
453,027	35284,97
453,233	37412,81
453,44	35737,57
453,646	36825,04
453,852	36886,48
454,058	37142,47
454,264	36937,68
454,47	38076,35
454,676	37453,76
454,882	39042,99
455,088	36851,66
455,294	37560,26
455,5	38574
455,705	38940,59
455,911	38059,96
456,117	37738,43
456,323	38053,82
456,529	36882,38
456,735	38481,84
456,941	37705,66
457,147	37861,31
457,352	37570,5
457,558	36820,94
457,764	37867,45
457,97	37894,08
458,176	37857,21
458,381	37851,07
458,587	37464
458,793	37920,7
458,999	37232,58
459,204	40212,38
459,41	40949,65
459,616	38838,19
459,821	39497,64
460,027	40259,48
460,233	40650,64
460,438	39485,35
460,644	40273,82
460,85	39851,94
461,055	40050,59
461,261	40722,32
461,466	38490,04
461,672	38115,26
461,878	41510,79
462,083	39606,18
462,289	39096,24
462,494	39071,66
462,7	38076,35
462,905	37615,55
463,111	39559,08
463,316	40034,21
463,522	39681,95
463,727	40542,1
463,932	41090,96
464,138	40744,85
464,343	41349
464,549	40945,55
464,754	43007,86
464,959	42413,94
465,165	42551,16
465,37	41289,61
465,575	41494,41
465,781	42741,62
465,986	43313
466,191	42008,45
466,397	42606,45
466,602	41037,71
466,807	42397,56
467,012	42891,12
467,218	43325,29
467,423	43130,73
467,628	44771,16
467,833	45766,47
468,038	44724,05
468,244	44152,67
468,449	45553,48
468,654	44545,88
468,859	44488,54
469,064	44119,9
469,269	43618,15
469,474	44717,91
469,679	46120,77
469,885	45242,19
470,09	46729,01
470,295	47417,13
470,5	46321,47
470,705	47077,17
470,91	47062,83
471,115	47175,47
471,32	48723,74
471,525	48289,57
471,73	47949,6
471,935	48387,87
472,139	48279,33
472,344	48865,05
472,549	49057,56
472,754	49962,76
472,959	49551,12
473,164	49135,38
473,369	48910,1
473,574	51382
473,778	50609,92
473,983	51005,17
474,188	52023,01
474,393	50335,49
474,598	51384,05
474,802	50728,7
475,007	51244,79
475,212	51795,69
475,417	51136,24
475,621	51750,63
475,826	52688,6
476,031	52647,64
476,235	52836,06
476,44	53823,18
476,645	53872,33
476,849	54476,48
477,054	54904,51
477,259	54986,42
477,463	55168,69
477,668	55109,3
477,872	56440,48
478,077	56098,47
478,282	56436,39
478,486	56168,1
478,691	56448,67
478,895	57144,98
479,1	57140,89
479,304	57775,76
479,509	57196,18
479,713	57904,78
479,918	57611,92
480,122	57271,96
480,326	58826,37
480,531	59412,09
480,735	59651,7
480,94	59295,35
481,144	60958,3
481,348	58830,46
481,553	59754,1
481,757	59147,9
481,961	59680,37
482,166	60073,58
482,37	60282,47
482,574	59022,97
482,778	59678,32
482,983	60671,59
483,187	59575,92
483,391	60302,95
483,595	59659,89
483,8	58078,86
484,004	58248,84
484,208	57527,95
484,412	56184,49
484,616	55451,31
484,821	55324,34
485,025	53597,9
485,229	54537,92
485,433	54642,37
485,637	55770,8
485,841	55363,25
486,045	56266,41
486,249	56966,81
486,453	56897,18
486,657	57966,22
486,861	58766,98
487,065	57284,25
487,269	57716,37
487,473	57734,8
487,677	59281,02
487,881	59750
488,085	59620,98
488,289	60628,58
488,493	60986,97
488,697	61873,74
488,901	62174,8
489,105	62072,4
489,309	62180,94
489,512	61750,87
489,716	61634,13
489,92	61333,08
490,124	60585,57
490,328	61025,88
490,531	60651,11
490,735	60749,41
490,939	60690,02
491,143	60753,5
491,346	60661,35
491,55	61476,44
491,754	61025,88
491,958	61492,82
492,161	61415
492,365	61423,19
492,569	60896,86
492,772	61775,44
492,976	61779,54
493,18	62137,93
493,383	62910,02
493,587	62780,99
493,79	62967,36
493,994	62109,26
494,197	62393,93
494,401	62375,5
494,605	62119,5
494,808	62209,61
495,012	62320,2
495,215	62314,06
495,419	62553,67
495,622	62408,26
495,825	62578,25
496,029	62180,94
496,232	62453,32
496,436	61832,78
496,639	61945,42
496,843	60651,11
497,046	61365,85
497,249	60784,22
497,453	60515,94
497,656	60448,36
497,859	60573,28
498,063	60264,04
498,266	60896,86
498,469	59752,05
498,673	59627,12
498,876	59229,82
499,079	59106,94
499,282	58054,28
499,485	58359,43
499,689	57329,3
499,892	58240,65
500,095	57194,14
500,298	57609,87
500,501	56676
500,705	57681,55
500,908	57454,23
501,111	57605,78
501,314	57325,21
501,517	57460,37
501,72	57390,74
501,923	56946,33
502,126	57421,46
502,329	57544,34
502,532	56659,62
502,735	56557,22
502,938	56690,33
503,141	56639,14
503,344	57233,05
503,547	56585,89
503,75	57407,12
503,953	57708,18
504,156	57628,3
504,359	57691,79
504,562	57712,27
504,765	58338,95
504,968	58019,47
505,17	58345,09
505,373	57554,58
505,576	58140,3
505,779	57208,47
505,982	57532,05
506,185	57443,99
506,387	57544,34
506,59	56475,3
506,793	57147,03
506,996	56069,8
507,198	57570,96
507,401	56602,27
507,604	57573,01
507,807	57833,1
508,009	57863,82
508,212	57077,4
508,415	56802,97
508,617	57179,8
508,82	57214,61
509,022	56180,39
509,225	57208,47
509,428	57015,96
509,63	57069,21
509,833	57167,51
510,035	57794,19
510,238	57069,21
510,44	57980,56
510,643	57495,19
510,845	57515,67
511,048	56491,68
511,25	56503,97
511,453	56374,95
511,655	57415,32
511,858	55936,68
512,06	55987,88
512,262	55654,06
512,465	55123,64
512,667	55537,33
512,87	55113,4
513,072	54587,07
513,274	54972,09
513,477	55299,76
513,679	55084,73
513,881	55254,71
514,084	55512,75
514,286	55078,58
514,488	55015,1
514,69	55144,12
514,893	54644,41
515,095	53067,48
515,297	52670,17
515,499	51379,95
515,701	50659,07
515,904	50482,94
516,106	50675,45
516,308	50577,15
516,51	51126
516,712	50220,8
516,914	50925,3
517,116	51093,24
517,318	50515,71
517,52	50781,95
517,722	50763,51
517,925	51068,66
518,127	52207,33
518,329	52768,47
518,531	52530,91
518,733	53167,83
518,935	53632,72
519,136	53157,59
519,338	53958,34
519,54	53647,05
519,742	54128,33
519,944	53864,14
520,146	54691,52
520,348	54709,95
520,55	55160,5
520,752	54529,73
520,954	55422,64
521,155	54353,6
521,357	54486,72
521,559	54374,08
521,761	54666,94
521,963	53862,09
522,164	53976,78
522,366	54789,82
522,568	55078,58
522,77	54881,98
522,971	56256,17
523,173	55131,83
523,375	55643,82
523,576	55531,18
523,778	54642,37
523,98	55275,19
524,181	55133,88
524,383	54806,2
524,584	54679,23
524,786	54087,37
524,988	52985,56
525,189	52199,14
525,391	51511,02
525,592	51097,33
525,794	51281,65
525,995	50347,78
526,197	50458,37
526,398	50910,97
526,6	51441,39
526,801	51228,4
527,003	51791,59
527,204	51744,49
527,406	52567,77
527,607	52547,29
527,808	52432,61
528,01	51767,02
528,211	52203,24
528,412	52414,18
528,614	52178,66
528,815	51918,57
529,016	52655,84
529,218	51853,03
529,419	52631,26
529,62	52231,91
529,822	52115,17
530,023	52254,43
530,224	51949,29
530,425	51590,89
530,626	50847,48
530,828	50050,82
531,029	50779,9
531,23	49725,19
531,431	49162
531,632	49057,56
531,833	49116,95
532,035	48551,71
532,236	48756,5
532,437	48926,49
532,638	48346,91
532,839	48770,84
533,04	49020,69
533,241	48154,4
533,442	48803,61
533,643	48205,6
533,844	48467,74
534,045	48394,01
534,246	48492,32
534,447	49164,05
534,648	48727,83
534,849	48619,29
535,05	48254,75
535,251	48404,25
535,451	47650,6
535,652	47564,59
535,853	47359,79
536,054	46876,47
536,255	47261,49
536,456	46915,38
536,657	48103,2
536,857	47001,39
537,058	46497,59
537,259	47140,66
537,46	46698,3
537,66	46772,02
537,861	45780,81
538,062	45674,31
538,263	45561,67
538,463	45190,99
538,664	44707,67
538,865	44423
539,065	44541,78
539,266	43831,14
539,466	44121,95
539,667	43255,66
539,868	44050,27
540,068	43372,39
540,269	43401,07
540,469	43544,42
540,67	43677,54
540,87	43587,43
541,071	43741,03
541,271	43417,45
541,472	43405,16
541,672	42770,29
541,873	43134,83
542,073	42454,9
542,274	43179,89
542,474	42960,75
542,675	42643,32
542,875	43464,55
543,075	43089,77
543,276	42876,79
543,476	43093,87
543,676	42569,59
543,877	43065,2
544,077	42962,8
544,277	42508,15
544,478	42483,58
544,678	42743,67
544,878	42364,79
545,078	42336,12
545,279	41904
545,479	41809,79
545,679	41893,76
545,879	41826,18
546,079	41410,44
546,28	41338,76
546,48	41213,84
546,68	40830,86
546,88	40837,01
547,08	40769,43
547,28	40886,16
547,48	40744,85
547,68	41027,47
547,88	40662,93
548,081	40783,76
548,281	40916,88
548,481	40759,19
548,681	40740,75
548,881	40830,86
549,081	40325,02
549,28	40001,44
549,48	40284,06
549,68	40433,56
549,88	40273,82
550,08	39620,52
550,28	40200,09
550,48	39956,38
550,68	40468,37
550,88	39653,28
551,08	39960,48
551,279	39767,97
551,479	39649,19
551,679	39301,03
551,879	39243,69
552,079	39219,11
552,278	39067,56
552,478	38746,03
552,678	39176,11
552,878	39385
553,077	39016,36
553,277	38827,95
553,477	38979,5
553,676	38995,88
553,876	39075,76
554,076	38932,4
554,275	38623,15
554,475	38428,6
554,674	38703,03
554,874	38473,65
555,074	38031,29
555,273	37932,99
555,473	38213,56
555,672	37435,33
555,872	37732,29
556,071	37656,51
556,271	37322,69
556,47	36945,87
556,67	36874,19
556,869	36935,63
557,068	36675,54
557,268	36710,35
557,467	36253,65
557,667	36057,05
557,866	35659,74
558,065	35366,88
558,265	35469,28
558,464	35069,93
558,663	35407,84
558,863	34971,63
559,062	35448,8
559,261	34881,52
559,461	35682,27
559,66	34818,03
559,859	35571,68
560,058	35391,46
560,258	35524,58
560,457	34846,7
560,656	35063,78
560,855	34463,73
561,054	34983,91
561,253	34537,46
561,453	34615,28
561,652	34621,42
561,851	35053,55
562,05	34715,63
562,249	34527,22
562,448	34486,26
562,647	34590,7
562,846	34103,29
563,045	34488,31
563,244	33552,38
563,443	34238,45
563,642	33908,73
563,841	33757,18
564,04	33622,01
564,239	33781,76
564,438	33157,13
564,637	33310,72
564,836	32831,5
565,035	32456,72
565,234	33026,06
565,432	32641,04
565,631	32593,93
565,83	32966,66
566,029	32731,15
566,228	32616,46
566,427	32716,81
566,625	32616,46
566,824	32065,56
567,023	32417,81
567,222	31778,84
567,42	31963,16
567,619	31764,51
567,818	31623,2
568,016	31635,49
568,215	31995,93
568,414	31438,88
568,612	31586,33
568,811	31072,29
569,01	31402,02
569,208	30644,27
569,407	31107,11
569,605	30455,86
569,804	29968,44
570,002	30095,41
570,201	30398,51
570,4	30124,08
570,598	30275,63
570,797	30320,69
570,995	30402,61
571,193	29974,58
571,392	30208,05
571,59	30220,34
571,789	30347,31
571,987	30150,71
572,186	30074,93
572,384	30033,97
572,582	30117,94
572,781	30052,41
572,979	29657,15
573,177	30023,73
573,376	29878,33
573,574	29392,96
573,772	29696,06
573,971	29259,84
574,169	29063,24
574,367	29108,29
574,565	28905,54
574,763	28905,54
574,962	28725,32
575,16	28887,11
575,358	28686,41
575,556	28721,23
575,754	29112,39
575,952	28149,84
576,151	28799,05
576,349	28469,33
576,547	28559,44
576,745	28471,37
576,943	28178,51
577,141	28131,41
577,339	28356,69
577,537	27787,35
577,735	27691,1
577,933	27768,92
578,131	28100,69
578,329	27834,46
578,527	27947,09
578,725	28158,03
578,923	27914,33
579,121	28360,78
579,319	28315,73
579,516	28416,08
579,714	28627,02
579,912	28344,4
580,11	28301,39
580,308	28285,01
580,506	28553,29
580,704	28000,34
580,901	28862,54
581,099	28577,87
581,297	28627,02
581,495	28846,15
581,692	28753,99
581,89	28856,39
582,088	29145,16
582,285	28291,15
582,483	28966,98
582,681	28981,32
582,878	28508,24
583,076	28790,86
583,274	28991,56
583,471	28807,24
583,669	29122,63
583,866	28274,77
584,064	28624,97
584,262	28155,99
584,459	28143,7
584,657	27732,06
584,854	28098,64
585,052	27582,56
585,249	27650,14
585,447	27930,71
585,644	27762,78
585,841	27861,08
586,039	28047,44
586,236	27846,74
586,434	27502,68
586,631	27725,91
586,828	27787,35
587,026	27600,99
587,223	27392,09
587,42	26853,48
587,618	26859,62
587,815	26050,67
588,012	25720,95
588,21	25196,67
588,407	25206,91
588,604	24946,82
588,801	25051,27
588,999	25014,4
589,196	25251,97
589,393	25563,26
589,59	25571,45
589,787	25610,36
589,984	25798,77
590,182	25260,16
590,379	25817,21
590,576	25692,28
590,773	25651,32
590,97	25520,25
591,167	25878,65
591,364	25118,85
591,561	25915,51
591,758	25364,6
591,955	25475,2
592,152	25757,81
592,349	25481,34
592,546	25698,42
592,743	25505,91
592,94	25182,34
593,137	25761,91
593,334	25391,23
593,531	24797,32
593,727	24895,62
593,924	24739,97
594,121	24807,56
594,318	24873,09
594,515	24385,68
594,712	25149,57
594,908	24572,04
595,105	24668,3
595,302	24703,11
595,499	25124,99
595,696	24598,66
595,892	24328,33
596,089	24404,11
596,286	24678,54
596,482	24492,17
596,679	24465,55
596,876	24436,88
597,072	24230,03
597,269	24115,34
597,466	23881,88
597,662	23781,53
597,859	23779,48
598,055	23742,61
598,252	23750,81
598,448	23468,19
598,645	23754,9
598,841	23806,1
599,038	23335,07
599,234	23335,07
599,431	23640,22
599,627	23457,95
599,824	23380,12
600,02	22907,04
600,217	23277,72
600,413	22687,91
600,609	22796,45
600,806	22956,19
601,002	22562,98
601,198	22687,91
601,395	22177,97
601,591	22773,92
601,787	22597,8
601,984	22513,83
602,18	22993,06
602,376	22814,88
602,572	22872,23
602,769	22890,66
602,965	22743,2
603,161	22958,24
603,357	22763,68
603,553	22943,91
603,75	22823,08
603,946	22712,49
604,142	22900,9
604,338	22339,76
604,534	22753,44
604,73	22374,57
604,926	22847,65
605,122	22753,44
605,318	22894,75
605,514	22309,04
605,71	22573,22
605,906	22935,71
606,102	22581,42
606,298	22653,09
606,494	22440,11
606,69	22943,91
606,886	22827,17
607,082	22194,35
607,278	22874,27
607,474	22077,62
607,67	22634,66
607,866	21952,69
608,062	22235,31
608,257	22083,76
608,453	22433,96
608,649	22485,16
608,845	22212,78
609,041	22157,49
609,236	22120,62
609,432	22247,6
609,628	21989,55
609,824	22108,33
610,019	22063,28
610,215	22202,54
610,411	22421,67
610,606	22159,53
610,802	22386,86
610,998	22462,63
611,193	22409,39
611,389	22143,15
611,584	22284,46
611,78	22083,76
611,976	22716,58
612,171	22333,61
612,367	22732,97
612,562	22067,38
612,758	22014,13
612,953	21725,36
613,149	22304,94
613,344	22218,92
613,539	22399,15
613,735	22468,78
613,93	22223,02
614,126	22241,45
614,321	22464,68
614,517	22241,45
614,712	22444,2
614,907	22034,61
615,103	22241,45
615,298	21999,79
615,493	22220,97
615,688	21823,67
615,884	22067,38
616,079	21686,45
616,274	22077,62
616,47	22120,62
616,665	22202,54
616,86	22175,92
617,055	22401,19
617,25	22458,54
617,445	22661,29
617,641	22208,69
617,836	22653,09
618,031	22526,12
618,226	22657,19
618,421	22661,29
618,616	22466,73
618,811	22411,43
619,006	22519,98
619,201	22266,03
619,396	22538,41
619,591	22732,97
619,786	22741,16
619,981	22225,07
620,176	22692,01
620,371	22139,05
620,566	22444,2
620,761	22161,58
620,956	22448,3
621,151	22124,72
621,346	22053,04
621,541	21637,3
621,735	22304,94
621,93	21465,27
622,125	21962,93
622,32	21426,36
622,515	21356,73
622,709	21569,72
622,904	21375,16
623,099	21166,27
623,294	21223,61
623,488	21059,77
623,683	20902,08
623,878	20680,9
624,072	20644,04
624,267	20484,3
624,462	20484,3
624,656	20512,97
624,851	20525,25
625,046	20162,76
625,24	20091,09
625,435	20398,28
625,629	20365,51
625,824	20164,81
626,018	20187,34
626,213	19841,23
626,407	20154,57
626,602	19560,66
626,796	19658,96
626,991	19435,74
627,185	19009,76
627,38	18653,41
627,574	18901,22
627,768	18778,34
627,963	18741,47
628,157	18680,03
628,352	18790,63
628,546	18675,94
628,74	18909,41
628,935	18495,72
629,129	18647,27
629,323	18061,55
629,517	18620,64
629,712	18073,84
629,906	18393,32
630,1	18182,38
630,294	18546,92
630,489	18587,88
630,683	18520,29
630,877	18100,46
631,071	18211,05
631,265	18204,91
631,459	18209
631,653	18215,15
631,848	18452,71
632,042	18505,96
632,236	18514,15
632,43	18469,09
632,624	18559,2
632,818	18254,06
633,012	18125,04
633,206	18454,76
633,4	18536,68
633,594	18247,91
633,788	18401,51
633,982	18323,69
634,176	18428,13
634,369	18284,78
634,563	18548,96
634,757	18475,24
634,951	18514,15
635,145	18440,42
635,339	18393,32
635,533	17938,67
635,726	18467,05
635,92	18229,48
636,114	18581,73
636,308	18026,73
636,501	18520,29
636,695	18555,11
636,889	18350,31
637,083	18378,98
637,276	18168,04
637,47	18165,99
637,664	18104,56
637,857	18421,99
638,051	18725,09
638,244	18180,33
638,438	18403,56
638,632	18297,06
638,825	17881,33
639,019	18188,52
639,212	18147,56
639,406	17987,82
639,599	17989,87
639,793	17699,06
639,986	17869,04
640,18	17682,67
640,373	17848,56
640,567	17619,19
640,76	17561,84
640,954	17692,91
641,147	17475,83
641,34	17639,67
641,534	17553,65
641,727	17785,07
641,92	17694,96
642,114	17692,91
642,307	17461,49
642,5	17600,76
642,694	17443,06
642,887	17348,86
643,08	17490,17
643,273	17545,46
643,467	17447,16
643,66	17412,34
643,853	17764,59
644,046	17291,51
644,239	17543,41
644,432	17330,42
644,626	17142,01
644,819	17017,08
645,012	17166,59
645,205	17176,83
645,398	17371,38
645,591	16914,69
645,784	16984,32
645,977	16879,87
646,17	16955,65
646,363	16822,53
646,556	16748,8
646,749	16670,98
646,942	16822,53
647,135	16550,15
647,328	16898,3
647,521	16750,85
647,714	16582,91
647,907	16654,59
648,099	16406,79
648,292	16288,01
648,485	16326,92
648,678	15929,61
648,871	16214,28
649,064	15902,99
649,256	16226,57
649,449	15948,04
649,642	15821,07
649,835	16347,4
650,027	16206,09
650,22	16335,11
650,413	16378,12
650,605	16261,38
650,798	16089,35
650,991	15954,19
651,183	16105,74
651,376	16017,68
651,568	15995,15
651,761	15978,76
651,954	16206,09
652,146	15960,33
652,339	16093,45
652,531	16001,29
652,724	15853,84
652,916	15753,49
653,109	15726,86
653,301	15898,89
653,494	15819,02
653,686	15872,27
653,879	15739,15
654,071	15804,69
654,263	15556,88
654,456	15388,95
654,648	15583,51
654,84	15110,43
655,033	14709,02
655,225	14520,61
655,417	14186,79
655,61	14041,39
655,802	13852,97
655,994	13246,77
656,186	13549,87
656,379	13607,22
656,571	13885,74
656,763	13816,11
656,955	14078,25
657,148	14446,88
657,34	14350,63
657,532	14387,49
657,724	14711,07
657,916	14614,82
658,108	14739,74
658,3	14694,69
658,492	14592,29
658,684	14594,34
658,876	14805,28
659,068	14903,58
659,26	14792,99
659,452	15104,28
659,644	15182,1
659,836	14752,03
660,028	15044,89
660,22	14885,15
660,412	15089,95
660,604	14993,69
660,796	14928,16
660,988	15194,39
661,18	14993,69
661,372	15053,08
661,563	15110,43
661,755	14975,26
661,947	14836
662,139	14852,38
662,331	14770,46
662,522	14766,37
662,714	14760,22
662,906	14723,36
663,097	14807,33
663,289	14618,91
663,481	14524,71
663,673	14674,21
663,864	14651,68
664,056	14358,82
664,247	14715,17
664,439	14297,38
664,631	14631,2
664,822	14758,17
665,014	14514,47
665,205	14625,06
665,397	14512,42
665,588	14530,85
665,78	14510,37
665,971	14473,51
666,163	14623,01
666,354	14289,19
666,546	14440,74
666,737	14121,26
666,929	14254,37
667,12	14299,43
667,311	14166,31
667,503	14061,87
667,694	14256,42
667,885	13801,77
668,077	14242,09
668,268	14180,65
668,459	14172,46
668,651	14137,64
668,842	14221,61
669,033	14092,58
669,224	13916,46
669,416	13990,19
669,607	14010,67
669,798	14008,62
669,989	13859,12
670,18	13695,28
670,371	13543,73
670,563	13789,49
670,754	13766,96
670,945	13558,07
671,136	13599,02
671,327	13560,11
671,518	13533,49
671,709	13627,7
671,9	13642,03
672,091	13488,43
672,282	13470
672,473	13447,47
672,664	13781,29
672,855	13715,76
673,046	13572,4
673,237	13539,63
673,428	13463,86
673,619	13283,64
673,809	13556,02
674	13160,76
674,191	13400,37
674,382	13285,69
674,573	12972,35
674,764	13185,33
674,954	13248,82
675,145	12806,46
675,336	13033,79
675,527	13220,15
675,717	13138,23
675,908	12933,43
676,099	13144,38
676,289	13076,79
676,48	13115,7
676,671	12939,58
676,861	13132,09
677,052	12763,45
677,243	12699,97
677,433	12896,57
677,624	13101,37
677,814	13105,46
678,005	12839,23
678,195	12923,19
678,386	13048,12
678,576	12583,23
678,767	12917,05
678,957	12656,96
679,148	12925,24
679,338	12708,16
679,529	12769,6
679,719	12638,53
679,909	12912,95
680,1	12603,71
680,29	12818,75
680,481	12357,96
680,671	12747,07
680,861	12314,95
681,052	12572,99
681,242	12493,12
681,432	12761,41
681,622	12376,39
681,813	12476,74
682,003	12501,31
682,193	12181,83
682,383	12286,28
682,573	12599,62
682,764	12341,57
682,954	12388,67
683,144	12317
683,334	12048,71
683,524	12218,69
683,714	12017,99
683,904	12036,42
684,094	11997,51
684,284	12099,91
684,474	12134,73
684,664	12147,01
684,854	12077,38
685,044	12083,53
685,234	11819,34
685,424	11952,46
685,614	11845,96
685,804	11731,28
685,994	11506
686,184	10787,16
686,374	10201,44
686,564	9353,59
686,753	9142,64
686,943	8436,1
687,133	8141,19
687,323	8051,08
687,513	8376,7
687,702	8589,69
687,892	8540,54
688,082	8569,21
688,272	8841,59
688,461	8731
688,651	8499,58
688,841	8262,02
689,03	8493,44
689,22	8468,86
689,41	8472,96
689,599	8573,31
689,789	8745,34
689,979	8757,63
690,168	8857,98
690,358	8980,85
690,547	9023,86
690,737	9228,66
690,926	9279,86
691,116	9152,88
691,305	9570,67
691,495	9636,2
691,684	9558,38
691,874	9802,09
692,063	9978,22
692,252	9879,91
692,442	10398,05
692,631	9929,06
692,82	10185,06
693,01	10105,19
693,199	10258,79
693,388	10094,95
693,578	10299,75
693,767	10238,31
693,956	10203,49
694,146	10252,64
694,335	10344,8
694,524	10090,85
694,713	10361,19
694,902	10244,45
695,092	10162,53
695,281	10187,11
695,47	10320,23
695,659	10479,97
695,848	10250,6
696,037	10426,72
696,226	10586,46
696,415	10658,14
696,604	10684,76
696,793	10434,91
696,982	10629,47
697,171	10611,04
697,36	10553,69
697,549	10678,62
697,738	10340,71
697,927	10357,09
698,116	10643,81
698,305	10277,22
698,494	10398,05
698,683	10565,98
698,872	10428,77
699,061	10189,16
699,25	10393,95
699,438	10150,25
699,627	10123,62
699,816	10262,88
700,005	10131,81
700,193	10187,11
700,382	10305,89
700,571	10031,46
700,76	10180,96
700,948	10000,74
701,137	9929,06
701,326	9908,58
701,514	10045,8
701,703	9998,7
701,892	9961,83
702,08	9828,71
702,269	9759,08
702,457	9896,3
702,646	9906,54
702,834	9896,3
703,023	9845,1
703,212	9906,54
703,4	9820,52
703,589	9726,32
703,777	10043,75
703,965	9857,39
704,154	9836,91
704,342	9826,67
704,531	9896,3
704,719	9617,77
704,907	10047,85
705,096	9709,93
705,284	9693,55
705,472	9726,32
705,661	9871,72
705,849	10043,75
706,037	9806,19
706,226	9763,18
706,414	9628,01
706,602	9730,41
706,79	9816,43
706,979	9640,3
707,167	9744,75
707,355	9822,57
707,543	9789,8
707,731	9808,23
707,919	9644,4
708,107	9556,33
708,296	9474,42
708,484	9640,3
708,672	9689,45
708,86	9419,12
709,048	9630,06
709,236	9320,82
709,424	9445,74
709,612	9511,28
709,8	9830,76
709,988	9601,39
710,176	9752,94
710,364	9468,27
710,551	9464,18
710,739	9322,87
710,927	9525,61
711,115	9357,68
711,303	9460,08
711,491	9105,78
711,679	9214,32
711,866	9134,45
712,054	9335,15
712,242	9214,32
712,43	9279,86
712,617	9281,91
712,805	9036,15
712,993	9056,63
713,181	9062,77
713,368	9146,74
713,556	9085,3
713,744	9044,34
713,931	9144,69
714,119	8976,76
714,306	9030,01
714,494	9122,16
714,682	9032,05
714,869	8712,57
715,057	8855,93
715,244	8923,51
715,432	8968,57
715,619	8878,46
715,807	8833,4
715,994	8702,33
716,182	8432
716,369	8333,7
716,556	8481,15
716,744	7965,06
716,931	7827,85
717,119	7995,78
717,306	7852,42
717,493	7661,96
717,681	7563,66
717,868	7494,03
718,055	7475,6
718,242	7309,71
718,43	7174,55
718,617	7115,16
718,804	7006,61
718,991	6885,78
719,179	6855,06
719,366	6900,12
719,553	6756,76
719,74	6728,09
719,927	6658,46
720,114	6726,04
720,301	6838,68
720,488	6576,54
720,676	6664,6
720,863	6961,56
721,05	7203,22
721,237	7303,57
721,424	7485,84
721,611	7309,71
721,798	7426,45
721,985	7436,69
722,172	7524,75
722,358	7416,21
722,545	7467,41
722,732	7248,27
722,919	7350,67
723,106	7244,18
723,293	7184,79
723,48	7037,33
723,667	6889,88
723,853	6865,3
724,04	6998,42
724,227	6988,18
724,414	6998,42
724,6	6801,82
724,787	6971,8
724,974	6748,57
725,161	6963,61
725,347	6597,02
725,534	7020,95
725,72	6764,95
725,907	6914,45
726,094	6977,94
726,28	6783,38
726,467	6936,98
726,653	6697,37
726,84	6973,85
727,027	6863,26
727,213	6611,36
727,4	6599,07
727,586	6621,59
727,773	6644,12
727,959	6457,76
728,145	6637,98
728,332	6613,4
728,518	6523,29
728,705	6654,36
728,891	6605,21
729,077	6572,44
729,264	6410,65
729,45	6416,8
729,636	6621,59
729,823	6549,92
730,009	6625,69
730,195	6646,17
730,382	6828,44
730,568	6572,44
730,754	6554,01
730,94	6652,31
731,126	6615,45
731,313	6668,7
731,499	6631,83
731,685	6549,92
731,871	6613,4
732,057	6547,87
732,243	6740,38
732,429	6619,55
732,615	6703,51
732,801	6955,41
732,987	6963,61
733,173	6853,02
733,359	6822,3
733,545	6793,62
733,731	7000,47
733,917	6834,58
734,103	6990,23
734,289	6994,33
734,475	6965,65
734,661	7029,14
734,847	6855,06
735,033	6988,18
735,219	6873,5
735,404	6769,05
735,59	6838,68
735,776	6715,8
735,962	6891,93
736,148	6891,93
736,333	6844,82
736,519	6627,74
736,705	6810,01
736,89	6676,89
737,076	6812,06
737,262	6601,12
737,447	6783,38
737,633	6629,79
737,819	6685,08
738,004	6689,18
738,19	6707,61
738,375	6738,33
738,561	6719,9
738,747	6683,03
738,932	6465,95
739,118	6576,54
739,303	6558,11
739,489	6570,4
739,674	6449,57
739,859	6422,94
740,045	6578,59
740,23	6519,2
740,416	6406,56
740,601	6539,68
740,786	6494,62
740,972	6408,61
741,157	6480,29
741,342	6359,45
741,528	6414,75
741,713	6465,95
741,898	6451,61
742,084	6504,86
742,269	6406,56
742,454	6326,69
742,639	6361,5
742,824	6289,82
743,01	6365,6
743,195	6633,88
743,38	6515,1
743,565	6287,78
743,75	6326,69
743,935	6388,13
744,12	6560,16
744,305	6062,5
744,49	6341,02
744,675	6103,46
744,86	6281,63
745,045	6308,26
745,23	6166,95
745,415	6232,48
745,6	6330,78
745,785	6095,27
745,97	6246,82
746,155	6295,97
746,34	6336,93
746,525	6046,12
746,71	6212
746,895	6179,23
747,079	6212
747,264	6087,08
747,449	6023,59
747,634	6062,5
747,819	6183,33
748,003	5980,58
748,188	5976,48
748,373	6109,6
748,557	6117,79
748,742	5958,05
748,927	6021,54
749,111	5921,19
749,296	6005,16
749,481	6023,59
749,665	5931,43
749,85	5679,53
750,034	5906,85
750,219	5790,12
750,404	5853,61
750,588	6013,35
750,773	5734,82
750,957	5898,66
751,141	5724,58
751,326	5802,41
751,51	5654,95
751,695	5654,95
751,879	5665,19
752,064	5687,72
752,248	5593,51
752,432	5812,65
752,617	5671,34
752,801	5702,06
752,985	5593,51
753,17	5616,04
753,354	5718,44
753,538	5736,87
753,722	5714,34
753,907	5683,63
754,091	5351,85
754,275	5616,04
754,459	5495,21
754,643	5538,22
754,828	5644,71
755,012	5521,84
755,196	5581,23
755,38	5511,6
755,564	5517,74
755,748	5550,51
755,932	5439,92
756,116	5349,81
756,3	5376,43
756,484	5392,81
756,668	5360,05
756,852	5329,33
757,036	5403,05
757,22	5286,32
757,404	5300,66
757,588	5171,63
757,772	5102
757,956	5306,8
758,14	5190,06
758,323	5132,72
758,507	5276,08
758,691	5206,45
758,875	4995,51
759,059	4893,11
759,242	4790,71
759,426	4100,55
759,61	3822,02
759,794	3316,17
759,977	3043,79
760,161	2591,19
760,345	1978,85
760,528	1833,44
760,712	1468,91
760,895	1321,45
761,079	1153,52
761,263	1128,94
761,446	1053,17
761,63	1286,64
761,813	1454,57
761,997	1438,19
762,18	1626,6
762,364	1546,73
762,547	1477,1
762,731	1401,32
762,914	1231,34
763,098	1149,42
763,281	1059,31
763,464	1102,32
763,648	1110,51
763,831	1157,61
764,015	1296,88
764,198	1464,81
764,381	1409,51
764,564	1477,1
764,748	1589,74
764,931	1706,47
765,114	1976,8
765,297	2034,14
765,481	2058,72
765,664	2189,79
765,847	2306,52
766,03	2406,88
766,213	2709,97
766,397	2826,71
766,58	2992,59
766,763	3144,14
766,946	3299,79
767,129	3332,56
767,312	3613,13
767,495	3668,42
767,678	3856,84
767,861	4108,74
768,044	4227,52
768,227	4268,48
768,41	4491,71
768,593	4518,33
768,776	4645,31
768,959	4819,38
769,142	4661,69
769,324	4751,8
769,507	4825,53
769,69	4831,67
769,873	4942,26
770,056	4987,32
770,239	4989,36
770,421	5065,14
770,604	5089,71
770,787	5099,95
770,97	5153,2
771,152	4995,51
771,335	5401,01
771,518	4997,56
771,7	5278,13
771,883	5231,02
772,066	5282,22
772,248	5145,01
772,431	5415,34
772,613	5368,24
772,796	5380,53
772,978	5327,28
773,161	5515,69
773,343	5220,78
773,526	5374,38
773,708	5308,85
773,891	5345,71
774,073	5446,06
774,256	5218,74
774,438	5407,15
774,621	5411,25
774,803	5319,09
774,985	5269,94
775,168	5130,67
775,35	5358
775,532	5413,29
775,715	5464,49
775,897	5208,5
776,079	5407,15
776,261	5517,74
776,444	5368,24
776,626	5392,81
776,808	5466,54
776,99	5204,4
777,173	5245,36
777,355	5282,22
777,537	5327,28
777,719	5132,72
777,901	5216,69
778,083	5163,44
778,265	5196,21
778,447	5126,58
778,629	5319,09
778,811	5063,09
778,993	5257,65
779,175	5204,4
779,357	5349,81
779,539	5106,1
779,721	5194,16
779,903	5106,1
780,085	5042,61
780,267	5038,52
780,449	5175,73
780,631	4972,98
780,812	5093,81
780,994	5030,32
781,176	5118,39
781,358	4972,98
781,54	5073,33
781,721	4934,07
781,903	4876,73
782,085	4917,68
782,267	5032,37
782,448	4874,68
782,63	4880,82
782,812	4925,88
782,993	4858,29
783,175	4893,11
783,357	4741,56
783,538	4891,06
783,72	4866,49
783,901	4733,37
784,083	4753,85
784,264	4673,98
784,446	4641,21
784,627	4712,89
784,809	4549,05
784,99	4624,83
785,172	4772,28
785,353	4530,62
785,535	4612,54
785,716	4587,96
785,897	4581,82
786,079	4575,67
786,26	4610,49
786,441	4577,72
786,623	4452,8
786,804	4417,98
786,985	4463,04
787,167	4319,68
787,348	4504
787,529	4456,89
787,71	4356,54
787,891	4354,49
788,073	4352,45
788,254	4284,86
788,435	4454,84
788,616	4229,57
788,797	4291,01
788,978	4274,62
789,159	4245,95
789,34	4260,29
789,522	4217,28
789,703	4096,45
789,884	4127,17
790,065	4028,87
790,246	4207,04
790,427	3875,27
790,607	4092,35
790,788	4026,82
790,969	4047,3
791,15	3996,1
791,331	3975,62
791,512	3848,65
791,693	3862,98
791,874	3910,08
792,054	4006,34
792,235	3949
792,416	3979,72
792,597	3733,96
792,778	3750,34
792,958	3756,49
793,139	3848,65
793,32	3803,59
793,5	3813,83
793,681	3791,3
793,862	3697,1
794,042	3803,59
794,223	3623,37
794,404	3668,42
794,584	3598,79
794,765	3549,64
794,945	3547,59
795,126	3789,25
795,306	3652,04
795,487	3641,8
795,667	3768,77
795,848	3776,97
796,028	3584,46
796,209	3582,41
796,389	3705,29
796,57	3668,42
796,75	3566,03
796,93	3506,63
797,111	3463,63
797,291	3512,78
797,471	3490,25
797,652	3617,22
797,832	3518,92
798,012	3471,82
798,192	3697,1
798,373	3428,81
798,553	3549,64
798,733	3447,24
798,913	3559,88
799,093	3572,17
799,274	3451,34
799,454	3434,96
799,634	3582,41
799,814	3500,49
799,994	3299,79
800,174	3387,85
800,354	3355,08
800,534	3383,76
800,714	3301,84
800,894	3252,69
801,074	3269,07
801,254	3391,95
801,434	3283,41
801,614	3330,51
801,794	3160,53
801,974	3944,9
802,154	3279,31
802,334	3299,79
802,514	3174,86
802,693	3211,73
802,873	3172,82
803,053	3197,39
803,233	3283,41
803,413	3228,11
803,592	3140,05
803,772	3060,18
803,952	3236,3
804,131	3215,82
804,311	3224,01
804,491	3162,58
804,67	3074,51
804,85	3221,97
805,03	3162,58
805,209	3066,32
805,389	3070,42
805,568	3072,47
805,748	3023,31
805,928	3033,55
806,107	3035,6
806,287	3097,04
806,466	3031,51
806,646	3031,51
806,825	3078,61
807,004	3209,68
807,184	2943,44
807,363	3035,6
807,543	3049,94
807,722	2951,63
807,901	2976,21
808,081	2965,97
808,26	3000,79
808,439	2961,87
808,619	2818,52
808,798	2742,74
808,977	2865,62
809,156	2853,33
809,336	2773,46
809,515	2892,24
809,694	2728,41
809,873	2970,07
810,052	2810,33
810,231	2738,65
810,411	2822,61
810,59	2785,75
810,769	2712,02
810,948	2738,65
811,127	2615,77
811,306	2791,89
811,485	2839
811,664	2785,75
811,843	2832,85
812,022	2679,26
812,201	2681,3
812,38	2689,49
812,559	2587,1
812,737	2666,97
812,916	2554,33
813,095	2519,51
813,274	2630,1
813,453	2537,95
813,632	2378,2
813,811	2349,53
813,989	2386,4
814,168	2359,77
814,347	2355,68
814,526	2372,06
814,704	2271,71
814,883	2284
815,062	2193,89
815,24	2384,35
815,419	2193,89
815,598	2245,09
815,776	2269,66
815,955	2157,02
816,133	2154,98
816,312	2200,03
816,49	2044,38
816,669	1970,66
816,847	1993,19
817,026	2077,15
817,204	2019,81
817,383	2081,25
817,561	2085,34
817,74	2120,16
817,918	2036,19
818,097	1923,55
818,275	2013,67
818,453	1993,19
818,632	1941,99
818,81	1960,42
818,988	1860,07
819,167	1892,84
819,345	1989,09
819,523	1956,32
819,701	2005,47
819,879	1896,93
820,058	1917,41
820,236	1929,7
820,414	1982,95
820,592	2066,91
820,77	2048,48
820,948	2042,34
821,127	2052,58
821,305	2068,96
821,483	2157,02
821,661	2087,39
821,839	2136,54
822,017	2064,86
822,195	2191,84
822,373	1987,04
822,551	2034,14
822,729	1968,61
822,907	1853,92
823,085	1870,31
823,262	1804,77
823,44	1645,03
823,618	1657,32
823,796	1729
823,974	1796,58
824,152	1825,25
824,329	1761,77
824,507	1759,72
824,685	2034,14
824,863	1886,69
825,04	1982,95
825,218	1937,89
825,396	2036,19
825,574	2013,67
825,751	1896,93
825,929	2021,86
826,107	1966,56
826,284	1901,03
826,462	1919,46
826,639	1880,55
826,817	1817,06
826,994	1980,9
827,172	1909,22
827,349	2021,86
827,527	1892,84
827,704	1989,09
827,882	1960,42
828,059	1956,32
828,237	1802,72
828,414	1708,52
828,591	1722,85
828,769	1790,44
828,946	1774,05
829,124	1931,75
829,301	1833,44
829,478	1708,52
829,655	1835,49
829,833	1782,24
830,01	1817,06
830,187	1892,84
830,364	1817,06
830,542	1681,89
830,719	1847,78
830,896	1722,85
831,073	1630,7
831,25	1804,77
831,427	1833,44
831,604	1851,88
831,782	1753,57
831,959	1808,87
832,136	1763,81
832,313	1841,64
832,49	1706,47
832,667	1726,95
832,844	1710,57
833,021	1724,9
833,198	1651,17
833,374	1659,37
833,551	1733,09
833,728	1661,41
833,905	1788,39
834,082	1618,41
834,259	1632,74
834,436	1710,57
834,612	1698,28
834,789	1765,86
834,966	1677,8
835,143	1706,47
835,319	1657,32
835,496	1685,99
835,673	1722,85
835,85	1606,12
836,026	1679,85
836,203	1567,21
836,38	1735,14
836,556	1653,22
836,733	1708,52
836,909	1763,81
837,086	1610,22
837,262	1653,22
837,439	1616,36
837,616	1767,91
837,792	1649,13
837,968	1577,45
838,145	1626,6
838,321	1575,4
838,498	1653,22
838,674	1688,04
838,851	1694,18
839,027	1581,54
839,203	1595,88
839,38	1606,12
839,556	1587,69
839,732	1708,52
839,909	1610,22
840,085	1661,41
840,261	1532,39
840,437	1679,85
840,614	1614,31
840,79	1645,03
840,966	1645,03
841,142	1497,58
841,318	1565,16
841,494	1493,48
841,671	1698,28
841,847	1526,25
842,023	1528,3
842,199	1470,95
842,375	1497,58
842,551	1509,86
842,727	1468,91
842,903	1616,36
843,079	1483,24
843,255	1554,92
843,431	1606,12
843,607	1534,44
843,783	1450,47
843,959	1546,73
844,134	1333,74
844,31	1550,82
844,486	1389,03
844,662	1493,48
844,838	1434,09
845,013	1434,09
845,189	1468,91
845,365	1481,19
845,541	1483,24
845,716	1350,12
845,892	1524,2
846,068	1380,84
846,244	1317,36
846,419	1450,47
846,595	1456,62
846,77	1401,32
846,946	1491,43
847,122	1403,37
847,297	1399,27
847,473	1462,76
847,648	1376,75
847,824	1343,98
847,999	1253,87
848,175	1362,41
848,35	1452,52
848,526	1358,32
848,701	1393,13
848,876	1405,42
849,052	1460,71
849,227	1319,4
849,403	1309,16
849,578	1376,75
849,753	1341,93
849,929	1268,2
850,104	1198,57
850,279	1204,72
850,454	1176,05
850,63	1257,96
850,805	1217,01
850,98	1159,66
851,155	1182,19
851,33	1169,9
851,505	1153,52
851,681	1309,16
851,856	1264,11
852,031	1247,72
852,206	1325,55
852,381	1184,24
852,556	1204,72
852,731	1243,63
852,906	1231,34
853,081	1264,11
853,256	1196,53
853,431	1182,19
853,606	1161,71
853,781	1139,18
853,956	1114,61
854,131	1188,33
854,305	1141,23
854,48	1034,74
854,655	1044,98
854,83	1014,26
855,005	1030,64
855,18	1010,16
855,354	981,49
855,529	1014,26
855,704	1051,12
855,879	1102,32
856,053	1096,18
856,228	1153,52
856,403	993,78
856,577	1067,5
856,752	985,58
856,926	1069,55
857,101	1104,37
857,276	1157,61
857,45	1090,03
857,625	1071,6
857,799	1055,22
857,974	1030,64
858,148	1153,52
858,323	1044,98
858,497	1071,6
858,672	1133,04
858,846	1087,98
859,02	1059,31
859,195	1016,3
859,369	1026,54
859,543	1122,8
859,718	1024,5
859,892	1141,23
860,066	1114,61
860,241	1028,59
860,415	1063,41
860,589	973,3
860,763	1178,09
860,938	1065,46
861,112	1001,97
861,286	1096,18
861,46	948,72
861,634	981,49
861,808	956,91
861,982	1096,18
862,157	1008,11
862,331	969,2
862,505	954,87
862,679	975,35
862,853	963,06
863,027	1018,35
863,201	1077,74
863,375	940,53
863,549	1034,74
863,722	1004,02
863,896	1102,32
864,07	963,06
864,244	973,3
864,418	981,49
864,592	1055,22
864,766	903,67
864,939	952,82
865,113	1006,06
865,287	946,67
865,461	788,98
865,634	940,53
865,808	905,71
865,982	967,15
866,156	879,09
866,329	907,76
866,503	799,22
866,676	823,8
866,85	795,12
867,024	831,99
867,197	872,95
867,371	788,98
867,544	731,64
867,718	707,06
867,891	778,74
868,065	840,18
868,238	915,95
868,412	854,51
868,585	784,88
868,759	846,32
868,932	735,73
869,105	797,17
869,279	879,09
869,452	879,09
869,625	817,65
869,799	784,88
869,972	721,4
870,145	831,99
870,319	819,7
870,492	858,61
870,665	778,74
870,838	864,75
871,011	797,17
871,185	825,84
871,358	846,32
871,531	780,79
871,704	817,65
871,877	817,65
872,05	840,18
872,223	735,73
872,396	735,73
872,569	764,4
872,742	758,26
872,915	756,21
873,088	762,36
873,261	727,54
873,434	780,79
873,607	774,64
873,78	717,3
873,953	715,25
874,126	756,21
874,299	721,4
874,471	784,88
874,644	739,83
874,817	694,77
874,99	690,68
875,163	707,06
875,335	737,78
875,508	670,2
875,681	784,88
875,853	795,12
876,026	670,2
876,199	739,83
876,371	791,03
876,544	739,83
876,717	764,4
876,889	653,81
877,062	727,54
877,234	655,86
877,407	729,59
877,579	760,31
877,752	674,29
877,924	662,01
878,097	713,21
878,269	707,06
878,442	647,67
878,614	698,87
878,786	735,73
878,959	596,47
879,131	713,21
879,303	600,57
879,476	702,97
879,648	633,33
879,82	621,05
879,993	672,25
880,165	627,19
880,337	594,42
880,509	616,95
880,681	651,77
880,854	549,37
881,026	610,81
881,198	684,53
881,37	590,33
881,542	557,56
881,714	543,22
881,886	592,37
882,058	616,95
882,23	614,9
882,402	598,52
882,574	619
882,746	690,68
882,918	596,47
883,09	582,14
883,262	621,05
883,434	520,7
883,606	573,94
883,778	680,44
883,95	629,24
884,122	551,42
884,293	676,34
884,465	672,25
884,637	637,43
884,809	688,63
884,98	612,85
885,152	532,98
885,324	580,09
885,496	567,8
885,667	514,55
885,839	647,67
886,011	596,47
886,182	600,57
886,354	569,85
886,525	563,7
886,697	610,81
886,869	465,4
887,04	502,26
887,212	590,33
887,383	604,66
887,555	602,61
887,726	483,83
887,897	504,31
888,069	600,57
888,24	580,09
888,412	485,88
888,583	510,46
888,754	614,9
888,926	502,26
889,097	446,97
889,268	502,26
889,44	532,98
889,611	502,26
889,782	432,63
889,953	526,84
890,125	619
890,296	504,31
890,467	543,22
890,638	584,18
890,809	483,83
890,98	449,02
891,151	516,6
891,323	563,7
891,494	463,35
891,665	555,51
891,836	471,54
892,007	467,45
892,178	430,59
892,349	477,69
892,52	451,07
892,691	418,3
892,862	442,87
893,032	403,96
893,203	502,26
893,374	463,35
893,545	522,74
893,716	465,4
893,887	459,26
894,057	371,19
894,228	436,73
894,399	395,77
894,57	555,51
894,74	428,54
894,911	401,91
895,082	406,01
895,253	352,76
895,423	408,06
895,594	449,02
895,764	395,77
895,935	363
896,106	420,35
896,276	313,85
896,447	426,49
896,617	401,91
896,788	356,86
896,958	358,91
897,129	410,11
897,299	385,53
897,47	424,44
897,64	422,39
897,81	324,09
897,981	346,62
898,151	303,61
898,322	406,01
898,492	346,62
898,662	221,69
898,832	295,42
899,003	266,75
899,173	328,19
899,343	344,57
899,513	250,36
